#Acq. time (s)=	5
#Accumulations=	2
#Range (cm-¹)=	100...1800
#Windows=	4
#Autofocus=	Off
#SWIFT=	Off
#Macrospot=	Off
#AutoExposure=	Off
#Spike filter=	Multiple accum.
#Delay time (s)=	0
#Binning=	1
#Readout mode=	Signal
#DeNoise=	Off
#ICS correction=	On
#Dark correction=	Off
#Inst. Process=	Off
#Detector temperature (°C)=	-60.1
#Instrument=	LabRAM HR Evol
#Detector=	Syncerity OE
#Objective=	x40_NUV
#Grating=	1800 (500nm)
#ND Filter=	100%
#Laser (nm)=	325
#Hole=	100.021
#Temperature=	0
#Range=	UV
#Laser. Pol.=	No
#Raman. Pol.=	No
#Laser Pol. (°)=	-0.008
#Raman Pol. (°)=	0
#StageXY=	Marzhauser
#StageZ=	Marzhauser
#X (µm)=	5107.8
#Y (µm)=	2620.1
#Z (µm)=	-35.8
#Full time(mm:ss)=	10:16
#Project=	A
#Sample=	B
#Site=	C
#Title=	_325nm_1800 (500nm)_x40_NUV_5 s_2_100_100%_2018_06_21_1
#Remark=	
#Date=	21.06.2018 16:29
#Acquired=	21.06.2018 16:29:20
	100.398	101.965	103.534	105.104	106.673	108.239	109.808	111.376	112.945	114.51	116.079	117.647	119.212	120.779	122.347	123.911	125.479	127.046	128.61	130.177	131.743	133.307	134.873	136.436	138.002	139.568	141.131	142.696	144.259	145.824	147.386	148.951	150.513	152.077	153.639	155.203	156.764	158.328	159.889	161.453	163.013	164.576	166.137	167.699	169.259	170.822	172.382	173.944	175.503	177.062	178.624	180.183	181.741	183.303	184.861	186.422	187.98	189.538	191.099	192.656	194.213	195.773	197.331	198.887	200.444	202.004	203.56	205.116	206.675	208.231	209.787	211.343	212.901	214.456	216.011	217.566	219.121	220.679	222.233	223.787	225.342	226.896	228.45	230.006	231.56	233.113	234.666	236.219	237.772	239.325	240.878	242.43	243.985	245.538	247.09	248.641	250.193	251.745	253.296	254.847	256.398	257.949	259.5	261.05	262.601	264.151	265.701	267.251	268.801	270.35	271.9	273.449	274.995	276.544	278.093	279.642	281.19	282.739	284.287	285.835	287.383	288.928	290.475	292.023	293.57	295.117	296.664	298.208	299.755	301.301	302.847	304.394	305.937	307.483	309.028	310.574	312.116	313.662	315.207	316.749	318.294	319.838	321.383	322.924	324.468	326.012	327.553	329.097	330.64	332.181	333.724	335.264	336.807	338.35	339.889	341.432	342.971	344.513	346.055	347.594	349.136	350.675	352.216	353.754	355.295	356.833	358.374	359.912	361.452	362.989	364.529	366.066	367.606	369.143	370.682	372.219	373.755	375.294	376.83	378.369	379.905	381.443	382.978	384.513	386.051	387.586	389.121	390.658	392.193	393.727	395.264	396.798	398.332	399.868	401.402	402.935	404.468	406.004	407.537	409.07	410.603	412.138	413.67	415.202	416.734	418.269	419.8	421.332	422.863	424.394	425.926	427.459	428.99	430.521	432.051	433.581	435.111	436.641	438.171	439.704	441.233	442.762	444.292	445.821	447.349	448.878	450.407	451.935	453.463	454.992	456.519	458.047	459.575	461.102	462.63	464.157	465.684	467.211	468.738	470.264	471.79	473.317	474.84	476.366	477.892	479.417	480.943	482.468	483.993	485.518	487.041	488.565	490.09	491.614	493.139	494.663	496.184	497.708	499.231	500.755	502.275	503.798	505.322	506.844	508.364	509.887	511.409	512.932	514.451	515.973	517.495	519.014	520.535	522.056	523.575	525.096	526.617	528.135	529.655	531.176	532.693	534.213	535.731	537.25	538.77	540.287	541.806	543.323	544.842	546.358	547.876	549.392	550.911	552.426	553.944	555.46	556.977	558.492	560.01	561.524	563.042	564.556	566.073	567.587	569.101	570.617	572.131	573.647	575.16	576.673	578.189	579.702	581.214	582.73	584.242	585.754	587.269	588.781	590.292	591.807	593.318	594.829	596.343	597.854	599.365	600.876	602.389	603.899	605.41	606.92	608.43	609.942	611.452	612.961	614.47	615.98	617.491	619	620.509	622.017	623.526	625.034	626.542	628.05	629.561	631.068	632.576	634.083	635.59	637.097	638.604	640.111	641.617	643.124	644.63	646.136	647.642	649.148	650.654	652.159	653.665	655.17	656.675	658.18	659.685	661.189	662.694	664.198	665.699	667.203	668.707	670.211	671.715	673.218	674.721	676.224	677.725	679.227	680.73	682.233	683.735	685.234	686.736	688.238	689.74	691.242	692.74	694.242	695.743	697.241	698.742	700.243	701.743	703.241	704.741	706.241	707.739	709.238	710.738	712.235	713.734	715.233	716.73	718.229	719.725	721.223	722.722	724.217	725.716	727.211	728.709	730.204	731.701	733.199	734.693	736.19	737.685	739.181	740.675	742.172	743.665	745.162	746.655	748.148	749.644	751.137	752.632	754.125	755.62	757.112	758.605	760.099	761.591	763.086	764.577	766.069	767.563	769.054	770.545	772.038	773.529	775.019	776.51	778.003	779.493	780.983	782.475	783.965	785.454	786.944	788.436	789.925	791.414	792.902	794.391	795.882	797.37	798.859	800.347	801.834	803.322	804.812	806.3	807.787	809.274	810.761	812.248	813.735	815.221	816.708	818.194	819.68	821.169	822.654	824.14	825.625	827.111	828.596	830.081	831.566	833.051	834.535	836.02	837.504	838.985	840.469	841.953	843.437	844.921	846.404	847.887	849.37	850.853	852.336	853.816	855.299	856.781	858.263	859.746	861.228	862.709	864.188	865.67	867.151	868.632	870.111	871.592	873.073	874.553	876.031	876.347	877.833	879.319	880.801	882.287	883.772	885.257	886.742	888.226	889.711	891.193	892.677	894.161	895.645	897.129	898.61	900.094	901.577	903.06	904.543	906.024	907.506	908.989	910.469	911.951	913.433	914.916	916.395	917.877	919.358	920.837	922.318	923.799	925.278	926.759	928.24	929.717	931.198	932.675	934.156	935.636	937.113	938.593	940.069	941.549	943.028	944.505	945.984	947.46	948.938	950.414	951.893	953.368	954.846	956.322	957.799	959.274	960.752	962.227	963.704	965.178	966.652	968.129	969.603	971.08	972.553	974.03	975.503	976.976	978.452	979.925	981.398	982.873	984.346	985.818	987.293	988.765	990.237	991.711	993.183	994.654	996.128	997.599	999.07	1000.54	1002.01	1003.49	1004.96	1006.43	1007.9	1009.37	1010.84	1012.31	1013.78	1015.25	1016.72	1018.19	1019.66	1021.13	1022.6	1024.06	1025.54	1027	1028.47	1029.94	1031.41	1032.88	1034.34	1035.81	1037.28	1038.74	1040.21	1041.68	1043.14	1044.61	1046.08	1047.55	1049.01	1050.48	1051.94	1053.41	1054.87	1056.34	1057.8	1059.27	1060.73	1062.2	1063.66	1065.13	1066.59	1068.06	1069.52	1070.98	1072.45	1073.91	1075.37	1076.84	1078.3	1079.76	1081.22	1082.69	1084.15	1085.61	1087.07	1088.53	1089.99	1091.46	1092.92	1094.38	1095.84	1097.3	1098.76	1100.22	1101.68	1103.14	1104.6	1106.06	1107.52	1108.98	1110.44	1111.9	1113.36	1114.81	1116.27	1117.73	1119.19	1120.65	1122.11	1123.56	1125.02	1126.48	1127.94	1129.39	1130.85	1132.31	1133.76	1135.22	1136.67	1138.13	1139.59	1141.04	1142.5	1143.95	1145.41	1146.86	1148.32	1149.77	1151.23	1152.68	1154.14	1155.59	1157.05	1158.5	1159.95	1161.41	1162.86	1164.31	1165.76	1167.22	1168.67	1170.12	1171.57	1173.03	1174.48	1175.93	1177.38	1178.83	1180.28	1181.74	1183.19	1184.64	1186.09	1187.54	1188.99	1190.44	1191.89	1193.34	1194.79	1196.24	1197.69	1199.14	1200.59	1202.04	1203.48	1204.93	1206.38	1207.83	1209.27	1210.72	1212.17	1213.62	1215.07	1216.51	1217.96	1219.41	1220.85	1222.3	1223.75	1225.19	1226.64	1228.08	1229.53	1230.98	1232.42	1233.87	1235.31	1236.76	1238.2	1239.65	1241.09	1242.53	1243.98	1245.42	1246.87	1248.31	1249.75	1251.2	1252.64	1254.08	1255.53	1256.97	1258.41	1259.85	1261.3	1262.74	1264.18	1265.62	1267.06	1268.5	1269.95	1271.39	1272.83	1274.27	1275.71	1277.15	1278.59	1280.03	1281.47	1282.91	1284.35	1285.79	1287.23	1288.67	1290.1	1291.54	1292.98	1294.42	1295.86	1297.3	1298.74	1300.17	1301.61	1303.05	1304.48	1305.92	1307.36	1308.8	1310.23	1311.67	1313.11	1314.54	1315.98	1317.41	1318.85	1320.28	1321.72	1323.15	1324.59	1326.02	1327.46	1328.89	1330.33	1331.76	1333.2	1334.63	1336.06	1337.5	1338.93	1340.36	1341.8	1343.23	1344.66	1346.1	1347.53	1348.96	1350.39	1351.82	1353.26	1354.69	1356.12	1357.55	1358.98	1360.41	1361.84	1363.28	1364.71	1366.13	1367.56	1369	1370.43	1371.85	1373.28	1374.71	1376.14	1377.57	1379	1380.43	1381.86	1383.29	1384.72	1386.14	1387.57	1389	1390.43	1391.85	1393.28	1394.71	1396.13	1397.56	1398.99	1400.41	1401.84	1403.27	1404.69	1406.12	1407.55	1408.97	1410.4	1411.82	1413.25	1414.67	1416.09	1417.52	1418.94	1420.37	1421.79	1423.22	1424.64	1426.06	1427.49	1428.91	1430.34	1431.76	1433.18	1434.6	1436.03	1437.45	1438.87	1440.29	1441.71	1443.14	1444.56	1445.98	1447.4	1448.82	1450.24	1451.66	1453.08	1454.5	1455.92	1457.34	1458.76	1460.18	1461.6	1463.02	1464.44	1465.86	1467.28	1468.7	1470.12	1471.53	1472.95	1474.37	1475.79	1477.21	1478.63	1480.04	1481.46	1482.88	1484.3	1485.71	1487.13	1488.54	1489.96	1491.38	1492.79	1494.21	1495.63	1497.04	1498.46	1499.87	1501.29	1502.7	1504.12	1505.53	1506.95	1508.36	1509.77	1511.19	1512.6	1514.02	1515.43	1516.84	1518.26	1519.67	1521.08	1522.5	1523.91	1525.32	1526.73	1528.15	1529.56	1530.97	1532.38	1533.79	1535.2	1536.61	1538.03	1539.44	1540.85	1542.26	1543.67	1545.08	1546.49	1547.9	1549.31	1550.72	1552.13	1553.54	1554.95	1556.36	1557.76	1559.17	1560.58	1561.99	1563.4	1564.81	1566.21	1567.62	1569.03	1570.44	1571.84	1573.25	1574.66	1576.07	1577.47	1578.88	1580.28	1581.69	1583.1	1584.5	1585.91	1587.31	1588.72	1590.13	1591.53	1592.93	1594.34	1595.74	1597.15	1598.55	1599.96	1601.36	1602.76	1604.17	1605.57	1606.97	1608.38	1609.79	1611.2	1612.6	1614.01	1615.42	1616.83	1618.24	1619.64	1621.05	1622.46	1623.86	1625.27	1626.68	1628.08	1629.49	1630.9	1632.3	1633.71	1635.12	1636.52	1637.93	1639.33	1640.74	1642.14	1643.55	1644.95	1646.36	1647.76	1649.17	1650.57	1651.98	1653.38	1654.78	1656.19	1657.59	1658.99	1660.4	1661.8	1663.2	1664.6	1666.01	1667.41	1668.81	1670.21	1671.62	1673.02	1674.42	1675.82	1677.22	1678.62	1680.02	1681.42	1682.83	1684.22	1685.63	1687.03	1688.43	1689.83	1691.22	1692.63	1694.02	1695.42	1696.82	1698.22	1699.62	1701.02	1702.42	1703.82	1705.22	1706.61	1708.01	1709.41	1710.8	1712.2	1713.6	1715	1716.39	1717.79	1719.19	1720.58	1721.98	1723.38	1724.77	1726.17	1727.56	1728.96	1730.35	1731.75	1733.15	1734.54	1735.93	1737.33	1738.72	1740.12	1741.51	1742.91	1744.3	1745.69	1747.09	1748.48	1749.87	1751.27	1752.66	1754.05	1755.45	1756.84	1758.23	1759.62	1761.01	1762.41	1763.8	1765.19	1766.58	1767.97	1769.36	1770.75	1772.15	1773.54	1774.93	1776.32	1777.71	1779.1	1780.49	1781.88	1783.26	1784.65	1786.04	1787.43	1788.82	1790.21	1791.6	1792.99	1794.38	1795.76	1797.15	1798.54	1799.93
1	138.356	130.73	129.113	138.886	140.747	150.185	148.73	142.377	155.725	165.777	173.706	195.815	205.119	220.121	222.89	288.664	342.523	418.192	417.629	382.17	352.453	294.435	265.067	236.639	225.61	244.562	229.702	217.325	233.53	218.839	228.828	209.376	225.486	221.513	240.451	226.301	206.858	224.336	223.2	216.389	210.945	222.704	224.626	219.003	219.347	228.461	217.655	234.32	261.441	234.298	238.912	244.008	270.444	265.555	264.753	292.437	303.566	296.842	325.126	345.312	362.937	343.111	371.708	415.232	440.609	441.319	450.99	461.993	473.134	474.585	483.983	487.928	468.711	449.26	452.251	406.627	412.015	402.942	378.122	368.798	360.896	329.076	309.284	299.916	270.352	269.543	266.12	286.965	282.783	275.444	268.209	275.394	256.281	254.225	232.29	244.256	241.123	247.42	243.029	229.619	245.125	242.288	239.054	242.071	272.529	269.185	272.392	246.481	241.276	231.11	236.734	232.342	244.712	269.292	252.932	263.351	258.38	282	259.653	246.794	231.544	225.569	214.874	235.748	213.374	219.797	207.838	222.125	217.023	219.578	230.28	215.037	214.338	206.712	218.658	219.82	217.222	252.62	232.058	225.316	232.933	208.234	221.053	209.066	202.268	219.303	224.234	205.242	223.22	222.434	214.575	209.756	221.309	208.062	230.842	234.255	225.412	239.666	228.424	246.268	262.996	276.727	264.244	268.483	302.549	272.279	266.319	253.809	235.631	238.052	244.993	237.96	231.694	226.82	223.999	225.588	204.566	221.822	235.97	228.735	221.592	244.026	254.552	249.116	232.188	229.094	237.728	242.705	257.915	264.197	296.994	270.267	269.056	265.267	273.434	250.332	246.231	252.228	251.132	240.529	247.889	213.862	234.551	244.847	210.267	221.196	230.372	249.186	246.76	225.355	238.069	253.059	256.388	251.091	252.864	254.431	261.599	257.079	244.239	255.669	274.044	284.92	290.298	297.371	345.131	340.633	372.129	364.714	417.181	480.889	576.93	715.431	878.737	1176.39	1351.72	1491.33	1417.01	1210.73	995.356	794.099	639.574	549.742	476.313	431.512	392.624	371.257	358.943	346.815	303.368	336.954	330.256	325.611	312.98	287.95	294.936	311.253	324.322	319.506	354.541	403.737	411.895	386.731	387.969	348.003	328.584	299.337	279.046	264.19	263.15	251.266	241.888	255.001	244.617	248.209	243.921	219.023	237.63	242.961	261.145	248.116	253.542	221.023	212.631	214.828	225.714	230.861	222.863	233.286	219.994	217.006	230.475	226.971	225.5	210.041	227.233	223.9	224.726	215.698	200.002	217.114	213.685	215.807	227.861	228.285	204.534	214.458	205.55	203.43	208.791	222.958	211.499	202.023	224.892	216.262	218.487	216.964	231.412	233.113	231.053	212.178	214.982	211.352	216.089	218.926	232.873	219.129	203.317	221.024	203.705	205.327	212.218	204.461	198.118	212.422	219.76	218.197	225.595	210.801	208.61	206.225	208.283	221.181	223.874	222.215	211.808	222.152	219.831	230.92	221.957	225.064	208.714	222.524	210.674	199.552	203.878	210.05	214.737	216.887	222.652	221.603	215.489	205.528	208.297	208.595	211.689	224.895	213.144	196.912	194.748	199.868	201.615	183.554	198.713	207.177	194.862	199.348	212.045	208.999	213.12	211.703	199.42	194.566	194.391	199.94	204.466	207.667	205.396	215.627	220.77	227.873	219.813	219.66	211.053	213.684	194.502	213.656	208.987	202.066	195.142	215.744	206.779	204.269	196.083	184.301	184.203	201.996	183.845	191.359	194.135	199.659	188.011	193.483	199.557	196.518	194.346	184.83	202.47	191.733	190.48	188.478	199.92	191.452	170.211	187.764	210.58	187.961	197.87	188.363	192.437	200.47	215.872	192.672	203.247	213.913	204.539	204.728	203.895	194.008	218.292	202.751	203.007	222.626	214.141	203.563	210.228	199.302	197.946	220.094	211.577	215.353	219.109	216.328	210.896	204.69	225.829	219.168	220.465	245.499	226.149	223.514	233.062	204.895	208.431	224.452	228.274	225.178	221.965	220.229	217.528	205.191	224.172	218.68	217.219	223.559	218.776	237.386	224.458	232.404	218.092	224.866	239.115	238.081	207.751	230.616	209.713	231.171	238.126	219.936	218.23	207.676	232.945	223.258	208.746	192.942	216.468	227.857	201.413	202.054	218.373	219.711	234.954	211.881	207.762	213.281	209.183	205.695	221.997	198.913	204.747	211.99	212.973	217.971	212.692	226.711	216.64	213.044	207.022	207.909	221.068	228.8	198.858	214.253	206.671	210.436	200.016	224.029	214.021	211.924	209.687	211.051	220.4	207.021	208.954	202.297	220.423	210.611	214.892	217.245	226.218	210.025	200.782	214.256	192.191	213.054	206.685	221.845	210.348	209.974	196.021	211.436	214.635	218.449	221.075	225.408	199.874	213.909	215.518	226.172	200.87	210.587	223.094	229.628	214.9	218.15	225.495	240.666	205.514	224.727	244.047	205.054	210.811	220.267	213.535	210.719	194.259	233.186	233.328	215.024	235.046	223.065	241.453	227.13	235.876	216.009	194.498	218.338	227.956	216.12	213.138	228.381	203.015	215.423	216.289	219.249	211.482	231.983	218.874	233.84	207.422	219.417	221.188	230.249	220.164	189.863	232.337	230.258	223.1	220.717	203.599	224.21	213.909	218.984	216.54	219.356	224.485	218.652	213.755	222.698	221.914	221.405	246.786	239.877	231.456	236.259	223.652	217.581	223.204	230.322	225.62	220.312	233.251	217.623	237.699	226.831	221.024	244.695	246.456	235.476	230.986	244.116	236.69	219.874	245.087	247.762	226.234	236.971	253.026	257.721	256.829	276.021	278.884	323.455	354.126	344.645	300.978	261.248	262.537	249.727	253.775	250.414	244.274	226.169	251.068	234.099	243.647	242.469	220.865	240.788	256.094	258.575	241.489	241.027	262.549	252.946	258.464	241.673	253.568	254.064	253.146	240.39	253.04	256.38	260.702	243.607	260.502	247.915	255.819	262.851	250.801	239.426	261.557	262.612	242.393	261.836	253.473	256.593	267.388	264.832	275.354	278.384	280.24	283.732	294.722	291.449	302.294	296.369	293.491	271.719	279.013	255.927	273.76	240.751	256.065	252.815	270.018	257.542	265.822	270.719	263.717	243.589	251.977	249.305	245.505	253.869	267.462	261.899	265.166	271.161	268.39	260.324	264.529	271.234	261.685	261.751	288.656	267.307	265.189	264.99	267.372	270.098	267.92	274.205	268.822	261.712	264.555	277.674	253.787	272.103	280.275	279.644	276.347	275.301	276.335	288.897	279.589	285.092	281.914	263.666	256.935	264.542	249.58	274.349	268.684	264.684	288.59	278.172	274.779	286.783	284.655	285.45	282.885	282.994	282.523	266.494	271.601	287.146	297.81	297.882	293.914	293.893	278.622	284.759	302.317	293.207	290.089	301.878	294.184	301.764	299.819	286.565	294.196	301.189	300.409	302.867	304.233	306.314	292.896	309.656	322.864	306.856	313.956	313.942	312.65	333.884	316.944	315.358	322.541	324.654	325.572	325.788	318.653	324.669	346.229	330.04	345.039	334.513	351.387	352.187	350.175	337.807	327.267	340.421	340.186	350.713	344.691	351.64	344.16	352.055	347.62	354.062	346.114	339.359	357.022	362.315	364.24	365.392	384.378	382.62	379.559	389.031	375.616	381.585	378.118	391.863	370.432	374.508	392.85	382.49	385.133	391.868	399.333	389.393	375.629	374.605	381.951	386.55	394.374	384.657	397.366	397.229	384.297	374.619	371.55	378.033	370.283	395.254	379.455	381.986	395.46	398.742	387.973	378.226	388.838	383.263	379.934	400.563	399.912	405.728	385.113	380.507	388.125	386.63	385.843	375.949	378.504	388.256	387.129	381.469	391.362	398.561	400.602	387.411	380.001	394.615	392.789	382.451	384.124	382.513	384.439	384.578	383.659	388.444	388.311	377.361	386.776	392.49	381.755	373.453	385.006	381.96	382.934	387.225	392.005	385.554	381.743	388.496	384.779	389.775	396.439	398.232	387.704	388.937	386.445	380.438	384.608	390.266	388.725	380.765	381.204	378.181	383.02	386.176	389.859	394.28	388.079	389.06	383.99	389.061	403.334	391.57	383.026	376.48	384.76	383.455	386.414	387.122	383.773	368.768	397.305	394.229	396.62	388.181	401.472	391.536	405.145	394.624	391.314	387.312	398.744	397.865	384.392	401.948	418.801	423.938	413.044	419.228	415.242	421.117	438.899	406.753	432.699	429.286	425.752	415	407.043	434.117	444.512	431.75	447.973	443.017	445.182	443.277	438.866	443.446	454.304	461.67	463.582	460.494	466.78	496.396	472.024	473.397	487.491	500.569	477.492	487.458	491.213	516.63	521.098	530.302	534.02	513.375	536.975	519.445	544.449	501.078	517.141	522.637	554.666	546.445	547.818	553.314	544.696	558.912	578.412	545.88	581.501	550.639	558.153	569.829	537.658	555.59	538.893	543.776	556.499	551.456	521.354	531.512	556.74	527.187	530.286	527.029	491.769	495.633	478.125	480.408	472.416	475.087	478.733	457.324	482.559	448.587	439.112	443.727	418.876	442.152	420.736	419.276	418.656	390.152	403.506	410.869	407.349	411.575	404.687	386.207	386.635	392.568	373.488	384.002	398.049	404.985	386.063	404.176	378.59	389.412	359.883	353.068	364.195	377.524	364.582	380.559	376.325	361.936	370.994	377.346	364.999	372.918	358.7	365.332	378.084	379.89	390.086	368.46	344.209	364.745	363.749	351.428	359.297	347.44	351.296	352.422	370.019	372.277	363.722	355.652	356.361	349.819	351.422	363.33	360.7	363.673	349.343	344.534	349.356	339.68	355.758	352.635	359.638	360.251	337.397	352.654	356.75	351.606	352.108	338.042	372.363	358.892	351.287	371.324	355.129	350.362	357.948	346.293	347.692	345.237	359.754	353.603	362.397	356.319	346.674	363.898	360.479	353.936	350.791	363.105	361.735	354.807	345.258	354.864	354.114	350.553	342.55	343.913	338.914	352.224	343.652	361.456	350.027	359.736	354.19	348.612	360.127	365.402	345.774
2	108.513	112.011	114.222	117.732	124.386	111.837	137.381	143.463	122.825	141.069	155.58	162.414	165.196	189.76	206.843	236.168	252.588	275.499	300.089	274.516	215.401	206.753	212.295	201.387	202.935	184.894	192.57	191.991	179.247	179.145	183.749	171.222	155.725	159.035	176.493	165.024	158.402	174.292	163.112	174.82	165.021	183.922	188.675	180.038	174.752	186.715	172.107	194.025	187.641	191.799	207.084	204.01	215.716	239.697	234.445	241.892	249.671	240.407	277.647	287.167	277.795	309.295	313.023	339.664	366.747	380.127	376.155	361.872	359.464	360.219	347.497	336.282	331.533	340.036	315.215	309.974	304.668	302.988	270.491	283.297	269.7	245.599	244.069	242.198	214.052	237.253	224.759	236.823	221.821	216.504	222.261	208.389	201.679	211.215	195.309	185.969	175.563	195.611	187.154	206.452	198.21	205.232	226.04	205.81	216.706	208.582	195.048	203.558	203.286	197.933	187.306	200.442	186.29	193.56	193.661	193.564	185.753	184.706	182.379	179.846	168.604	178.661	178.777	167.429	165.748	184.652	182.866	161.955	166.783	190.77	157.785	170.043	178.406	162.331	176.541	179.041	182.353	193.913	198.881	199.581	200.035	188.235	196.365	203.303	166.182	164.755	163.564	199.74	185.332	175.741	178.828	173.937	177.909	195.182	194.714	192.749	193.698	191.445	189.494	208.368	194.934	206.512	215.702	223.557	225.388	218.219	203.429	208.329	177.736	201.851	216.904	189.761	187.882	198.141	184.951	201.543	198.448	190.499	191.257	183.653	198.331	181.856	203.667	207.11	182.5	188.162	191.848	204.951	206.322	195.581	212.758	216.259	214.619	202.589	200.207	200.05	194.416	203.08	184.218	193.863	212.821	183.656	192.779	202.069	198.972	185.337	177.5	194.981	212.93	192.581	202.021	198.538	215.812	201.204	200.49	198.698	188.033	206.396	200.013	217.667	218.105	218.587	219.293	256.353	265.399	302.325	299.05	327.821	349.29	428.564	475.741	598.48	743.436	930.483	1040.17	1038.22	980.244	810.671	658.231	557.066	423.78	371.314	356.152	320.409	295.923	286.371	248.545	254.605	268.199	263.39	246.867	263.736	261.392	248.168	239.234	254.575	257.597	263.167	303.183	345.389	338.984	333.233	316.119	305.448	260.276	245.646	229.594	221.26	190.924	205.734	207.295	205.153	207.338	191.741	199.726	215.459	193.34	201.888	204.728	197.117	185.518	171.506	195.195	191.572	167.746	181.392	185.505	177.422	173.811	171.764	179.253	185.025	184.217	175.31	182.85	187.39	173.276	178.012	188.447	178.102	171.743	173.45	169.063	168.373	169.892	165.115	171.18	173.452	185.155	180.234	163.82	167.637	184.467	173.112	185.988	184.732	170.87	166.124	177.556	177.671	173.019	174.167	176.533	189.898	182.377	171.381	173.1	173.444	181.669	166.355	162.963	165.957	173.203	160.781	164.201	165.856	161.657	180.023	184.23	169.114	177.854	163.875	172.781	178.976	177.42	192.36	199.005	188.241	182.263	180.23	184.498	187.751	170.887	151.641	170.8	185.281	169.918	162.507	169.647	175.664	165.315	165.921	180.684	182.046	174.491	167.776	162.873	152.771	151.258	153.173	160.627	162.891	157.409	161.695	165.555	166.754	178.13	162.802	166.104	175.181	158.309	160.481	170.543	172.089	177.148	174.834	169.881	170.401	175.089	162.615	166.605	168.287	171.185	171.951	153.794	143.452	150.31	162.544	156.06	164.337	161.778	166.151	155.936	160.18	149.833	155.102	149.228	160.989	162.062	144.166	143.565	143.118	168.417	163.107	159.634	151.629	150.883	151.924	148.112	154.124	152.365	149.094	158.709	152.303	155.821	156.751	163.323	153.676	151.045	170.23	159.224	169.077	169.902	176.011	147.246	163.297	165.547	155.081	182.905	160.852	171.416	187.928	172.573	181.086	162.269	160.13	173.907	182.036	165.948	171.651	171.277	176.196	160.812	163.428	174.824	183.106	182.739	181.045	177.454	158.605	190.314	190.34	170.237	197.717	184.978	184.613	170.526	190.915	170.438	174.929	175.742	181.327	178.886	169.726	172.44	180.36	177.329	175.892	170.133	176.248	179.206	171.019	187.397	169.123	172.994	169.579	175.911	167.794	185.336	176.095	165.745	171.527	160.536	169.247	163.267	171.427	182.601	164.665	177.951	180.797	187.655	185.567	164.34	165.17	166.749	167.09	159.355	167.849	154.127	170.201	175.736	160.492	165.837	171.175	183.322	166.517	176.727	148.218	149.075	185.083	155.478	167.846	179.331	190.667	176.742	175.755	160.454	163.624	179.769	156.01	168.602	155.205	182.514	175.822	168.626	176.156	184.272	178.403	147.97	168.587	162.523	175.626	172.853	162.653	163.598	166.924	163.756	183.949	173.887	180.9	168.188	167.537	156.822	155.641	167.485	175.793	173.53	168.911	151.372	170.307	166.341	154.33	174.039	185.407	185.632	176.704	172.557	176.736	196.99	183.173	184.648	169.662	176.9	181.734	194.098	166.821	177.173	178.778	176.757	176.837	175.113	170.798	181.21	177.445	189.697	178.489	167.177	164.721	175.459	167.989	183.2	187.004	169.639	151.848	176.805	175.956	181.986	167.059	181.066	169.757	170.231	182.542	182.279	157.181	168.799	167.05	182.377	185.654	180.737	180.479	178.947	193.135	184.014	176.228	175.907	187.165	169.227	181.7	173.54	179.929	181.858	181.497	173.955	171.159	176.42	167.741	177.466	180.914	191.136	176.025	179.889	167.253	171.336	167.136	177.485	183.162	197.353	194.773	194.034	186.172	176.534	185.837	179.409	176.818	182.421	181.998	198.456	203.674	204.401	196.436	195.654	218.776	221.857	207.211	181.528	195.084	192.985	191.9	185.973	191.393	194.276	185.771	192.716	191.161	195.592	188.964	199.523	195.782	182.908	208.148	204.869	190.821	207.028	192.776	190.69	197.075	199.74	198.843	203.56	200.141	201.152	200.475	187.671	203.994	192.376	196.759	194.735	199.241	184.352	194.666	204.582	182.7	201.791	198.062	193.241	210.105	210.721	207.211	221.444	216.855	206.794	216.872	242.908	226.005	212.893	233.825	225.887	216.069	217.039	220.737	215.363	211.967	203.329	204.969	205.194	215.424	202.477	211.929	221.917	208.29	218.623	210.059	216.213	214.324	211.025	209.866	215.079	218.777	219.164	220.619	202.631	208.844	210.234	221.653	212.906	222.067	218.211	221.321	219.541	212.963	217.418	211.516	211.719	228.343	219.994	227.831	230.427	221.22	229.684	219.503	227.009	222.14	226.009	236.533	227.303	222.783	220.418	210.755	224.681	220.553	218.828	206.471	240.182	221.08	230.925	236.679	218.477	246.563	219.004	243.105	226.593	223.925	220.641	235.664	244.499	221.327	235.037	242.516	238.455	252.198	246.214	242.861	241.15	243.618	261.308	252.542	236.789	254.192	257.367	256.787	253.628	266.031	263.962	254.519	262.713	253.962	251.582	267.911	262.82	262.357	260.908	270.404	273.441	262.623	279.89	281.102	277.285	271.989	274.127	287.008	291.184	284.412	284.569	282.662	281.522	284.874	289.196	293.766	301.635	302.96	294.469	292.269	297.672	301.228	296.302	320.098	311.708	307.2	303.185	310.404	314.616	305.901	299.027	315.423	314.817	315.283	324.23	318.58	316.72	326.355	323.651	328.176	331.342	331.072	329.392	331.395	320.13	331.329	338.657	338.679	340.495	341.878	325.318	331.162	342.245	338.074	334.81	328.661	326.25	337.034	318.038	327.366	333.522	327.346	332.212	340.546	338.198	333.132	333.568	336.398	333.389	335.283	341.266	336.296	326.458	336.182	325.237	320.028	319.649	320.926	338.586	327.596	313.851	320.984	325.151	319.303	328.051	328.476	325.174	331.094	339.412	328.275	335.75	333.442	322.489	333.108	325.535	324.508	331.845	332.212	332.493	327.2	323.157	327.659	314.974	327.139	324.689	322.224	321.803	321.197	309.577	315.092	313.962	315.717	315.822	331.998	339.851	329.276	319.482	316.705	332.421	331.582	327.806	328.275	330.123	333.473	322.136	314.97	323.979	320.786	324.513	336.676	340.364	323.341	323.737	308.191	318.805	333.563	319.515	331.835	331.854	343.057	340.514	327.43	313.919	318.953	338.109	324.723	327.339	326.966	331.697	329.972	323.569	326.647	324.358	334.92	334.307	333.367	324.786	336.452	325.952	337.519	343.945	354.225	345.111	342.861	349.6	360.951	341.2	337.776	362.863	361.6	355.555	350.808	355.451	376.36	379.339	384.101	373.659	384.87	372.113	374.395	398.997	390.621	395.628	388.304	414.14	392.214	409.769	400.776	422.253	425.754	435.324	445.661	459.83	441.968	425.032	453.139	459.573	467.253	473.858	454.545	468.919	448.471	461.229	484.11	497.118	499.735	502.013	473.323	491.867	531.794	492.413	517.989	474.779	524.087	520.897	514.215	513.825	526.003	499.31	504.267	508.552	497.587	505.712	500.663	481.576	483.785	477.29	489.654	480.079	430.436	459.747	438.559	436.63	431.083	410.711	381.158	376.308	405.491	397.599	373.645	382.594	375.308	362.315	349.983	344.279	359.698	356.066	342.61	365.222	342.34	354.867	311.934	335.36	338.025	338.746	331.875	316.839	317.498	323.314	319.201	313.788	322.295	298.587	322.119	293.284	297.77	298.723	301.544	281.866	300.175	289.941	299.834	297.499	301.794	302.476	308.74	310.367	309.574	302.519	300.612	288.334	302.828	300.619	291.799	287.458	297.933	295.458	277.179	286.874	303.36	291.495	278.492	286.897	290.06	297.727	292.763	292.557	275.475	279.924	281.656	291.394	295.287	274.777	270.157	273.904	283.391	280.212	276.665	288.129	286.616	294.032	272.604	284.867	284.352	292.444	291.312	287.926	295.654	306.851	304.268	282.074	279.178	285.377	279.477	301.828	274.463	291.427	294.311	289.414	277.891	288.521	296.675	290.1	285.935	280.853	289.035	288.452	297.798	294.945	284.219	284.656	281.585	289.498	284.949	287.402	305.641	296.382	303.277	273.396	282.38	282.084	271.524	273.957
3	119.367	97.4802	104.637	102.22	107.589	124.541	116.415	134.773	131.05	119.688	123.195	118.999	120.143	131.796	151.744	166.892	182.125	186.329	172.273	165.866	164.715	154.35	142.763	155.375	148.451	148.173	137.669	136.584	127.75	127.193	134.808	142.773	141.895	141.895	140.603	141.231	152.565	137.119	135.928	143.312	133.38	138.08	152.368	147.25	132.828	153.271	144.666	150.83	142.157	145.882	147.024	145.409	171.347	150.297	159.561	149.951	154.038	184.898	182.903	184.881	181.28	164.106	195.189	190.331	197.215	217.666	210.538	205.813	211.085	209.103	208.187	190.15	205.365	199.326	190.701	174.97	176.877	189.609	184.094	163.97	171.314	170.221	160.351	161.839	159.773	168.087	160.232	156.23	159.949	154.771	149.75	148.971	147.413	127.918	137.443	138.796	132.368	139.003	149.715	136.19	127.756	133.348	151.117	153.774	150.872	150.276	160.984	163.227	144.631	138.38	152.066	152.524	159.286	152.134	162.222	160.093	154.682	150.468	136.219	129.431	148.886	136.7	139.929	146.694	146.919	145.607	151.136	151.828	163.504	144.72	142.345	137.227	131.265	133.943	150.128	147.691	161.685	154.93	147.928	156.179	151.75	143.096	152.615	148.629	159.704	136.494	156.464	148.441	146.453	154.887	161.842	159.786	165.641	171.99	135.747	153.955	132.567	150.375	147.704	165.81	159.473	166.084	170.832	165.877	164.492	170.087	163.842	151.927	157.256	151.19	156.766	169.922	145.672	154.559	172.525	145.309	154.298	167.913	157.433	146.922	147.642	170.037	144.392	165.184	135.441	166.36	159.396	159.077	165.689	159.699	162.597	164.868	152.071	173.332	147.339	152.546	153.024	162.618	159.321	151.093	151.349	142.682	142.337	159.292	151.303	152.56	151.26	158.358	156.343	154.833	155.26	147.256	155.796	166.748	150.318	147.181	141.244	155.415	146.605	142.417	166.733	174.149	185.018	158.273	177.85	192.9	174.753	202.78	214.017	234.934	266.76	297.2	355.824	438.314	490.481	468.107	428.231	371.534	322.374	282.119	250.132	211.823	201.086	190.308	173.173	183.287	185.9	184.872	183.318	175.643	181.715	176.511	158.359	161.815	163.462	157.694	175.761	172.533	171.966	201.696	214.392	199.731	184.753	180.982	170.367	180.984	158.439	156.81	156.444	144.681	149.04	150.801	143.972	161.362	145.327	149.527	163.457	144.916	144.99	153.918	145.994	139.661	120.57	116.752	130.683	135.852	144.998	131.963	136.633	137.488	121.455	119.975	135.813	135.369	143.213	142.099	151.676	146.757	144.839	132.615	141.04	140.509	138.057	137.513	131.851	125.873	137.953	141.031	123.33	132.527	144.142	137.6	128.05	128.366	136.933	136.594	128.559	129.454	131.123	134.453	144.485	135.394	134.824	136.718	141.147	137.36	136.901	131.498	136.388	145.303	133.825	131.925	135.289	140.544	141.878	133.838	138.129	143.684	135.103	140.902	137.603	141.3	141.173	139.13	137.986	140.115	148.97	141.727	142.867	141.086	144.46	140.491	135.559	137.417	131.403	126.185	129.109	140.625	134.951	132.27	133.059	129.667	126.027	130.9	131.945	134.371	126.904	122.431	128.661	130.671	121.718	120.348	130.73	132.78	134.59	131.562	130.36	124.814	125.043	124.667	132.558	131.12	129.902	128.156	126.001	125.86	129.524	129.332	122.292	132.949	132.575	130.686	127.685	136.566	136.817	126.381	121.336	131.986	124.619	131.352	141.669	132.72	123.255	123.21	133.823	116.286	126.553	121.285	119.217	121.613	118.197	138.382	123.589	120.009	124.651	125.082	132.476	119.625	120.24	127.278	123.607	116.211	127.387	111.767	130.29	134.833	121.354	116.615	124.775	134.353	133.51	124.417	123.105	126.836	137.872	126.61	132.17	126.908	128.659	125.96	136.411	119.942	127.053	132.213	141.409	129.462	131.09	137.648	145.357	136.3	140.431	141.505	138.765	130.963	135.664	138.338	141.837	143.389	135.944	145.165	147.667	152.88	142.396	153.074	144.311	141.989	145.032	149.403	155.051	145.486	149.541	141.541	141.258	138.667	146.502	146.335	154.944	145.155	133.627	140.383	137.777	137.838	149.601	147.653	139.186	152.794	146.293	142.085	152.311	146.864	138.529	133.64	152.432	134.506	140.038	146.382	140.749	150.258	143.191	140.328	130.962	136.361	132.015	138.819	149.065	146.22	131.649	147.099	135.383	145.978	149.956	135.607	144.051	143.272	136.35	133.25	139.441	139.894	146.866	141.213	150.423	133.839	152.02	131.701	140.656	146.349	136.159	145.295	133.544	148.866	131.383	136.985	139.829	118.644	126.638	138.206	136.957	154.881	145.38	151.577	123.69	141.573	126.7	143.458	140.586	145.872	130.932	135.706	128.967	132.361	133.047	139.49	136.364	136.293	138.278	132.495	131.727	129.299	122.117	132.348	130.955	156.38	122.983	138.77	140.224	138.932	141.553	141.915	150.901	152.323	140.187	133.184	128.207	131.942	140.868	145.295	146.909	135.208	146.14	129.645	142.632	145.097	143.77	144.922	141.421	142.271	142.141	156.183	141.118	145.752	140.705	142.801	129.527	137.17	136.153	140.735	142.377	142.329	144.763	144.258	135.129	150.598	145.174	135.292	148.132	145.866	145.611	143.58	138.11	143.962	148.142	149.281	145.113	151.875	158.514	144.355	146.589	139.595	144.521	128.37	149.02	137.773	150.836	133.34	151.059	133.86	141.52	150.291	154.167	147.071	158.545	154.68	147.695	144.733	154.738	156.082	161.293	160.859	145.921	148.765	155.72	149.795	150.658	157.405	155.184	155.486	156.516	147.682	140.483	149.656	163.214	158.405	164.676	167.162	155.022	153.462	140.352	151.554	150.935	157.899	153.263	154.614	157.58	159.004	163.42	157.274	149.094	155.484	167.997	145.508	158.872	141.926	163.073	167.81	156.973	156.06	154.774	163.565	158.736	166.244	162.081	169.27	155.347	157.925	157.945	156.899	155.826	165.908	168.99	157.485	166.212	171.865	158.487	152.603	170.715	163.554	148.886	161.219	167.784	176.96	167.386	177.405	170.033	185.381	193.701	161.404	180.295	167.579	169.179	171.122	171.322	172.716	171.402	166.982	180.58	177.634	163.279	157.973	161.612	159.259	165.363	171.3	157.665	159.554	177.466	170.653	178.296	162.743	170.573	176.218	176.253	167.682	181.17	175.173	174.586	175.988	189.736	171.554	171.798	172.676	165.766	171.748	177.498	174.208	168.226	174.945	182.825	169.918	176.141	178.393	177.885	179.329	190.919	185.17	185.563	179.961	170.041	181.208	170.05	163.663	179.324	176.01	186.734	169.76	172.409	181.75	183.878	188.002	184.61	186.326	186.383	180.098	181.079	182.018	181.41	195.086	192.049	186.765	191.108	190.829	196.507	187.84	190.88	206.355	191.92	186.831	192	198.858	188.332	202.905	205.866	206.169	210.407	207.306	209.292	208.638	214.514	205.958	210.211	208.37	202.258	213.974	214.301	216.933	207.905	229.539	228.958	222.024	224.618	209.287	223.645	213.619	225.324	238.479	236.601	229.619	230.301	229.024	227.491	234.117	224.044	234.035	221.443	229.12	231.63	233.094	238.186	238.417	234.297	241.965	237.027	248.311	237.82	245.28	255.993	259.104	257.469	260.473	266.681	263.134	263.723	249.73	259.406	249.854	243.119	262.887	268.813	257.755	261.084	274.435	264.138	266.163	266.762	269.275	256.832	250.358	260.046	273.183	270.874	264.766	263.733	263.613	259.936	258.053	259.149	262.274	262.385	260.333	264.259	268.1	265.325	253.387	266.64	263.297	267.337	263.397	260.939	271.845	258.717	263.694	262.857	257.002	262.218	249.384	260.775	254.057	253.896	258.347	254.158	272.857	265.227	265.429	260.654	254.244	254.597	255.784	256.817	255.984	260.316	251.059	244.486	257.758	264.735	258.329	255.938	247.778	260.068	256.749	253.817	255.783	247.452	252.12	252.041	260.482	268.685	264.715	264.822	260.597	253.862	261.228	257.591	260.787	269.906	270.33	263.354	264.662	268.967	256.449	257.728	248.294	249.301	256.888	259.841	261.321	260.877	256.615	262.476	258.987	259.631	249.204	250.758	254.818	256.971	245.403	253.191	244.715	257.886	260.666	251.561	261.262	271.719	267.565	258.376	261.431	262.564	254.629	269.555	272.35	282.596	275.208	275.903	288.037	276.835	283.646	276.164	282.25	283.672	288.657	291.213	287.794	281.455	297.343	283.959	282.129	283.289	312.075	307.845	298.096	297.542	305.521	310.786	312.947	320.07	322.232	323.772	330.129	314.639	310.05	319.53	324.494	319.225	330.246	338.861	348.818	355.592	354.114	341.579	357.674	338.531	369.156	360.039	353.99	375.13	365.714	360.257	389.972	374.538	402.846	377.326	377.392	402.457	377.183	392.626	365.605	392.125	402.628	399.336	375.067	374.916	379.549	351.366	376.084	392.849	377.071	385.262	373.621	377.105	362.553	382.087	355.111	375.599	360.651	338.445	334.469	356.703	305.269	335.194	325.852	318.537	321.726	324.386	327.584	316.09	292.644	295.105	299.118	282.967	285.391	289.098	300.962	291.41	288.557	277.199	277.823	267.28	266.377	257.146	273.661	269.371	269.173	263.486	255.059	261.207	263.19	256.166	265.36	254.787	255.011	254.968	256.078	261.912	252.736	257.197	264.595	268.779	250.518	250.955	233.369	250.998	268.78	259.912	248.942	251.747	246.507	249.006	247.911	236.476	241.594	252.327	240.75	243.574	245.896	241.377	252.407	235.456	238.602	240.536	243.836	229.842	250.558	262.41	241.931	255.05	251.558	254.446	241.928	254.758	243.383	253.53	245.516	240.581	240.875	244.917	237.996	247.866	244.453	251.578	245.514	262.912	243.702	239.576	249.831	256.976	237.381	250.566	251.749	241.899	245.714	230.795	246.061	257.243	251.27	249.787	250.031	247.27	254.757	244.291	247.649	247.905	252.876	262.052	244.796	251.514	249.258	256.46	242.462	249.345	248.942	236.674	245.426	259.568	229.667	247.517	246.158	245.944
4	124.789	137.113	124.453	130.716	130.458	137.6	126.856	139.683	144.768	160.342	170.957	146.657	158.542	153.65	168.772	185.004	199.565	211.695	213.48	196.471	198.685	191.886	184.664	187.829	183.596	180.307	174.422	184.638	185.812	167.678	155.329	171.632	170.135	187.635	180.647	183.507	176.924	184.335	188.864	181.998	192.237	188.259	194.29	191.94	181.592	198.656	180.65	198.767	193.267	179.023	199.247	198.174	196.853	216.565	214.933	225.247	213.125	225.704	223.37	229.493	245.338	241.792	249.67	268.106	264.07	270.477	258.881	272.56	278.29	276.64	259.961	247.123	260.853	253.532	234.799	225.211	216.06	224.975	242.504	234.322	214.253	228.129	221.255	216.223	207.33	214.485	211.579	227.322	224.675	212.757	216.459	201.018	202.45	220.454	204.378	191.441	204.455	202.405	205.59	205.105	206.164	190.98	198.447	202.693	195.327	201.223	219.05	202.295	218.406	200.333	202.651	218.751	204.104	214.983	215.818	195.026	194.225	197.869	200.717	172.196	201.258	194.098	196.232	198.546	210.778	202.29	203.915	200.193	203.048	210.729	210.916	210.141	202.931	213.152	201.672	197.382	228.402	237.317	242.388	243.693	218.181	223.09	222.786	206.626	207.539	205.973	206.883	212.623	212.91	213.477	205.947	220.662	226.209	227.337	241.13	224.599	230.268	217.408	231.558	235.541	242.766	225.867	234.365	257.099	240.909	237.491	238.861	219.79	224.242	232.774	243.088	231.404	215.978	242.78	227.021	226.609	242.86	213.743	238.566	220.632	238.143	229.973	226.129	235.114	215.71	250.891	243.172	229.296	241.573	217.654	238.201	249.747	229.329	261.825	218.453	246.185	243.813	243.983	245.495	227.305	212.962	244.093	241.957	226.205	230.403	222.115	213.745	234.651	232.696	233.718	251.514	238.028	252.528	237.325	238.745	250.601	248.947	225.117	239.804	238.744	252.864	265.638	248.22	240.321	265.398	284.643	286.363	307.478	305.19	319.924	363.146	390.549	440.633	502.459	555.886	569.798	503.145	467.605	414.14	364.277	316.27	298.548	295.281	273.43	253.81	268.192	244.11	242.141	245.939	249.152	251.32	261.358	241.992	242.746	241.617	239.461	239.757	249.955	267.489	292.113	254.24	259.385	262.048	243.833	238.081	237.979	240.391	239.115	220.097	214.746	220.281	230.296	234.469	237.529	230.259	229.429	224.071	217.284	215.568	243.628	235.023	228.05	221.888	227.772	240.126	217.666	204.404	222.047	215.28	222.154	221.084	217.556	201.409	214.823	229.804	213.394	232.664	229.017	214.766	209.251	219.948	222.262	211.598	216.728	227.647	207.156	200.498	211.759	224.044	219.331	206.493	224.422	219.646	220.979	229.784	228.314	224.307	216.701	207.513	207.57	216.264	230.145	216.174	214.762	219.255	223.589	215.732	215.746	219.954	209.99	220.364	229.231	207.504	217.593	220.837	210.582	225.16	217.862	219.595	227.257	226.73	218.556	221.938	234.311	234.907	239.584	253.224	248.191	232.901	231.82	230.505	235.25	234.468	220.034	229.489	229.493	229.489	227.469	238.175	235.703	235.302	219.761	222.004	222.495	219.475	211.298	218.623	216.09	211.769	219.369	227.312	227.035	209.599	219.145	224.085	214.351	230.681	211.312	215.231	213.781	224.472	233.506	222.427	218.37	207.447	220.105	214.022	214.237	207.553	206.023	216.157	229.23	220.346	222.009	229.952	222.834	215.861	218.298	208.215	209.521	211.484	219.456	200.328	208.71	195.219	201.071	200.61	203.142	190.953	208.187	212.452	225.911	213.692	194.041	207.521	218.385	218.931	224.658	214.915	206.833	228.761	225.897	237.106	216.547	204.672	211.941	201.78	209.946	201.329	213.483	222.924	214.57	237.73	234.81	225.249	220.775	226.806	227.206	236.571	235.523	228.605	233.76	244.341	236.621	204.623	246.168	222.322	228.066	233.616	235.214	230.081	226.394	243.558	233.545	227.959	252.326	241.483	229.639	251.022	235.051	231.689	256.844	266.943	255.034	240.416	249.924	238.139	249.009	248.908	261.859	248.026	244.33	256.543	265.716	277.53	264.892	264.487	265.361	251.654	258.273	255.814	250.256	259.776	268.061	257.477	257.699	262.704	253.414	275.142	271.152	267.61	264.445	271.976	240.467	244.307	256.503	260.207	252.648	256.726	268.384	260.135	256.674	252.733	257.03	250.633	247.088	257.827	247.206	242.927	252.105	254.725	249.207	247.483	239.297	261.368	238.224	254.193	246.508	250.195	276.494	280.061	256.447	226.06	271.905	256.8	265.998	255.886	256.194	245.797	249.734	240.365	261.27	242.913	241.931	243.729	254.989	240.886	249.794	246.46	246.497	248.042	243.456	245.789	244.725	233.638	255.119	256.654	253.975	269.305	259.232	239.06	259.819	279.537	268.49	261.652	262.876	256.351	255.131	254.712	277.192	264.998	277.255	269.328	271.345	266.241	253.629	247.678	265.683	268.086	275.695	270.843	255.587	270.657	254.699	273.471	279.766	284.005	263.856	267.839	272.299	276.853	268.717	256.259	276.36	254.463	263.108	280.948	258.536	239.244	249.156	271.298	252.943	265.423	261.906	259.058	266.817	255.568	261.206	266.381	264.727	279.582	269.775	264.001	267.711	268.826	285.895	268.752	249.359	290.112	275.57	294.609	273.368	256.062	277.699	271.97	269.646	285.247	261.477	280.122	275.042	275.67	280.441	262.093	265.396	289.064	264.136	270.23	274.525	267.45	268.769	285.343	271.169	264.577	286.408	276.277	267.778	292.054	286.062	283.797	270.188	278.526	289.277	290.966	279.021	286.151	287.651	266.695	285.941	292.152	287.794	281.199	291.45	296.645	301.92	269.821	287.339	301.208	294.977	294.494	293.651	315.378	288.39	283.968	273.843	286.163	295.383	291.429	302.507	301.408	305.965	285.916	295.301	305.136	289.295	307.607	293.29	292.999	302.035	301.193	302.975	306.931	294.109	294.602	301.797	282.618	308.309	307.81	295.576	290.297	304.03	287.584	306	298.806	290	293.687	294.613	300.274	311.943	300.33	315.093	312.99	316.546	307.33	321.262	319.988	296.21	324.799	309.864	305.46	313.911	304.582	285.021	300.404	308.954	302.024	303.218	312.685	319.063	295.647	289.559	302.544	303.139	307.152	309.784	297.83	308.104	315.103	312.956	306.984	315.607	316.243	307.67	310.332	314.565	320.891	324.548	300.889	302.799	312.561	298.058	307.958	309.806	308.997	305.522	320.815	319.064	300.48	336.241	296.098	306.213	305.029	309.841	321.201	305.032	306.239	311.91	307.187	304.888	303.271	307.989	289.107	281.006	298.976	327.522	317.06	324.822	321.818	328.226	320.358	329.443	334.593	317.18	316.59	313.447	321.3	311.854	321.699	340.249	330.29	328.96	338.424	342.12	328.627	352.496	333.409	346.925	339.304	333.971	328.852	345.997	343.956	347.892	341.229	356.019	362.081	345.997	373.993	362.473	362.61	366.095	362.758	358.888	368.694	356.894	373.731	360.491	358.887	359.231	356.609	365.544	370.004	368.385	380.766	386.336	378.8	381.701	362.112	379.721	368.539	375.119	366.807	384.103	379.076	374.129	372.589	374.749	395.667	388.487	390.289	387.726	402.899	391.278	413.895	394.577	394.662	392.819	406.881	416.435	410.612	414.282	415.749	415.002	394.959	405.475	399.273	402.094	408.249	426.258	442.925	401.873	406.884	406.843	410.908	395.156	414.093	419.965	409.967	412.88	418.858	429.059	411.417	388.129	397.938	404.932	411.331	414.318	419.194	415.541	416.481	422.759	411.774	423.13	416.533	398.119	400.922	413.578	423.566	430.234	429.974	415.108	404.95	407.533	412.047	413.584	421.277	430.69	420.544	417.28	406.069	408.303	414.395	411.84	438.489	441.303	435.798	431.222	413.504	413.924	419.294	416.871	426.169	427.887	422.144	427.554	412.003	419.042	412.4	402.521	408.91	413.971	416.8	423.817	427.699	420.727	440.004	426.334	440.359	431.002	444.424	428.29	420.778	444.662	434.619	435.739	433.045	426.617	435.176	439.05	437.852	424.111	447.526	448.484	437.93	435.269	435.942	437.786	430.64	428.427	441.941	435.595	444.67	441.914	439.924	421.465	411.095	439.134	438.508	436.381	436.41	435.678	433.427	442.409	448.426	448.406	455.64	426.833	446.429	448.136	460.58	450.75	446.476	451.938	472.302	473.59	464.42	465.777	456.346	469.073	448.497	462.789	477.273	463.833	464.506	452.286	462.634	459.593	485.533	467.668	474.18	483.266	481.048	487.312	455.089	494.598	490.633	490.499	474.795	463.963	487.276	489.85	504.559	504.467	504.204	530.081	520.137	520.799	535.187	521.433	540.698	502.05	537.995	523.107	507.346	535.564	512.556	522.042	535.957	521.934	562.572	538.008	531.455	525.904	553.336	567.734	553.175	519.202	549.629	562.936	541.455	551.27	550.898	555.181	554.677	535.402	537.542	578.731	573.88	574.104	549.528	565.235	559.863	542.464	524.808	534.681	504.232	519.423	535.974	517.86	504.448	504.363	512.468	502.574	493.555	502.36	494.039	477.446	464.788	479.651	460.646	485.051	480.485	477.1	467.615	488.909	477.395	470.396	465.562	469.063	476.264	470.164	466.505	483.16	474.798	491.612	460.473	463.986	464.344	458.934	472.108	450.831	462.604	455.863	461.354	465.31	475.286	467.139	466.674	451.751	475.732	464.09	481.911	486.563	483.085	469.959	476.343	472.047	464.218	464.515	473.497	460.668	459.37	475.927	475.291	470.766	465.325	473.218	467.304	448.678	472.974	482.496	468.67	457.266	446.062	466.84	463.53	457.139	478.077	486.344	484.937	473.716	475.299	476.259	460.615	439.669	449.269	466.366	484.933	474.808	486.67	481.284	485.279	480.814	481.037	473.573	466.414	459.223	471.923	466.457	477.517	472.104	480.658	488.379	497.493	500.11	500.848	481.575	502.992	498.641	483.003	475.175	489.252	482.022	476.315	470.039	486.372	473.566	484.124	495.348	497.654	483.239	479.14	480.541	475.353	466.553	478.485
5	103.087	92.7081	92.0758	105.161	96.4973	96.047	84.7641	94.2233	108.021	117.996	117.697	105.733	111.874	123.057	135.874	139.637	171.816	181.952	186.166	154.022	146.777	139.801	144.009	137.76	138.781	140.01	132.278	129.658	129.255	125.871	130.038	130.101	116.259	134.946	126.531	126.729	119.866	114.233	117.324	126.092	119.132	117.908	115.085	124.02	134.11	134.411	131.997	141.658	149.694	135.594	132.678	123.889	138.409	148.212	132.569	152.566	155.677	155.855	165.775	181.463	179.135	189.06	178.369	191.564	203.192	213.106	215.62	210.945	213.894	207.458	201.941	195.847	188.228	176.437	173.765	173.653	163.233	151.136	157.443	152.877	158.479	152.148	156.493	152.69	143.18	124.833	137.665	136.396	140.907	136.739	137.54	130.11	135.489	121.699	110.392	117.254	120.964	117.869	115.858	130.908	137.498	121.144	138.486	139.594	124.414	133.447	123.182	128.352	134.107	115.944	118.577	134.116	124.434	133.562	125.761	127.404	133.427	116.055	128.539	132.003	107.424	114.173	127.169	138.231	134.969	118.122	111.068	133.837	119.947	126.464	132.333	119.491	114.961	116.91	124.754	124.214	125.967	130.252	129.592	143.372	140.876	136.367	139.044	144.524	120.784	122.748	113.148	127.8	131.049	115.001	121.027	122.789	125.038	142.443	141.51	135.841	121.426	129.559	118.299	139.693	136.094	138.993	155.318	133.909	140.732	121.561	137.697	110.521	132.178	117.786	128.529	137.214	139.018	120.638	128.558	125.837	120.031	120.844	137.817	124.257	122.063	127.969	155.27	128.86	143.657	117.301	132.319	132.184	138.51	140.262	162.506	122.567	125.909	153.659	146.718	139.052	145.127	116.733	124.691	136.937	126.928	118.304	128.782	133.492	131.365	127.446	124.247	137.891	126.172	128.161	141.103	145.782	143.581	155.53	133.212	127.452	136.833	130.113	130.996	139.819	140.098	148.01	145.318	159.338	159.248	168.816	177.274	186.96	204.517	231.016	262.992	323.169	380.417	468.469	494.351	463.114	439.962	371.563	324.633	261.696	236.504	198.862	192.721	187.478	159.22	157.23	166.723	169.565	148.641	151.069	148.157	141.302	147.997	157.031	142.113	156.51	165.377	151.691	169.558	187.19	175.921	186.52	173.209	161.594	151.606	142.508	126.84	132.133	132.106	122.267	131.503	124.019	123.131	124.799	128.279	115.18	119.303	119.866	131.708	124.795	129.603	124.55	122.84	128.93	117.907	120.292	119.207	115.475	118.295	117.027	113.972	112.522	120.03	117.281	112.668	112.401	110.867	110.925	130.978	118.629	111.712	112.353	112.213	120.322	120.386	105.768	109.115	115.245	118.092	123.406	113.338	127.283	119.518	116.789	116.414	118.576	112.043	101.258	108.35	123.334	103.551	105.166	109.899	115.522	108.873	111.48	117.542	123.056	117.757	109.188	110.045	116.491	118.947	114.056	116.097	117.01	108.409	117.104	126.396	111.92	112.749	116.288	121.906	118.266	116.21	125.918	129.053	115.108	108.984	111.699	113.794	117.782	115.275	115.501	118.928	109.185	101.627	114.056	112.894	111.693	111.062	115.305	124.537	124.789	113.895	112.961	107.012	102.735	102.783	112.865	110.818	107.049	104.21	114.661	108.427	109.796	109.565	120.204	113.44	109.115	108.454	113.878	109.158	105.128	113.831	111.026	115.837	106.903	121.984	110.447	114.828	102.237	96.8135	104.112	110.141	113.635	100.425	103.781	109.687	101.552	113.104	105.21	104.605	99.3102	108.692	100.452	94.7751	95.377	102.832	107.207	105.332	97.1039	106.205	104.118	110.971	101.209	100.179	96.756	99.1033	94.6651	112.232	109.855	108.132	93.1473	104.252	105.706	105.304	109.172	104.271	108.634	107.978	104.356	102.91	97.9059	96.6844	104.161	116.808	113.676	100.747	119.582	104.145	90.0006	102.402	105.542	115.432	110.137	108.603	112.299	121.965	108.095	109.223	114.817	109.703	125.741	106.097	108.996	108.069	122.544	122.624	107.546	111.579	127.318	132.539	111.853	104.142	116.89	106.384	126.608	122.198	106.131	112.946	110.127	115.211	131.538	121.709	118.02	102.585	109.564	128.348	128.589	116.265	120.493	121.527	127.847	140.319	128.084	122.709	118.09	108.85	112.626	108.127	108.062	109.358	106.74	112.26	110.858	111.201	108.797	123.112	128.351	121.936	108.262	119.147	113.884	123.398	126.279	118.249	126.877	126.798	117.274	114.873	114.042	113.214	112.49	105.163	127.703	105.027	108.6	112.871	116.053	125.66	115.428	108.348	98.3232	103.753	106.086	109	117.981	103.298	97.6953	100.299	112.476	113.029	106.049	115.487	105.353	102.407	96.6307	115.926	94.8773	100.418	97.3394	105.914	125.756	99.8422	97.192	108.292	116.378	104.84	117.301	116.992	110.228	103.055	123.172	139.772	114.327	113.148	110.931	116.235	100.105	112.583	109.706	114.805	103.41	103.69	121.82	111.332	111.929	124.592	122.201	113.346	111.317	95.6412	125.633	121.253	116.688	109.62	116.331	114.8	118.147	116.812	107.195	118.172	113.076	118.84	119.109	104.695	100.573	118.031	109.279	118.26	111.451	100.257	108.7	114.434	104.959	124.184	117.438	124.626	102.245	114.745	115.278	107.392	109.768	107.703	111.698	113.616	112.308	110.965	123.379	118.678	121.964	113.543	105.449	112.725	127.313	110.892	113.968	118.735	123.109	117.135	113.143	114.927	119.123	101.385	123.629	114.527	117.124	117.556	124.603	107.153	115.944	124.837	122.346	124.17	127.348	134.54	121.937	123.696	114.15	120.364	115.291	112.71	118.063	128.643	122.317	127.007	117.871	125.36	127.347	134.446	131.413	131.353	123.937	125.158	114.924	128.833	116.684	127.122	113.626	124.818	125.019	119.93	122.065	117.224	114.562	109.411	136.778	126.184	117.836	115.296	124.345	125.536	122.324	131.031	132.537	120.225	113.673	135.027	130.785	124.881	137.618	129.178	133.054	123.14	122.61	124.708	131.107	130.173	120.882	135.247	123.816	128.898	126.189	121.519	130.391	134.442	134	137.612	135.773	146.242	139.715	134.574	150.708	158.28	136.011	140.626	140.691	143.202	133.019	126.736	129.378	132.306	133.888	129.638	134.028	138.668	137.843	134.129	126.472	141.457	135.937	130.357	135.48	128.278	133.043	136.502	139.039	140.91	132.913	139.244	141.377	141.812	138.625	139.284	138.145	131.723	141.276	130.057	135.032	145.287	141.471	139.639	132.494	137.906	142.464	128.66	134.631	141.048	144.552	135.16	140.281	144.198	154.305	152.435	142.946	145.477	134.217	136.893	135.965	139.751	143.064	138.811	144.12	143.968	148.946	144.238	140.069	142.184	149.554	147.279	150.637	137.602	154.245	141.833	155.372	155.541	156.016	145.791	152.19	146.916	147.255	155.675	151.338	156.348	165.63	153.307	161.544	166.565	155.529	160.856	152.45	162.736	154.281	153.495	167.003	176.291	166.992	166.309	158.368	164.32	164.345	160.137	156.088	165.056	167.981	161.451	173.546	183.8	169.298	173.941	174.617	174.688	181.384	171.482	177.464	174.275	178.542	181.953	183.937	183.953	176.87	178.565	187.03	183.068	187.279	189.216	190.415	191.329	184.992	182.821	188.724	195.047	186.781	187.26	192.922	196.899	200.414	194.867	207.288	202.043	213.535	211.547	221.878	216.773	200.731	212.848	203.728	221.389	210.02	204.009	195.906	201.405	208.651	209.552	228.562	213.25	218.3	217.037	214.225	206.614	204.749	205.061	206.196	209.547	216.24	209.998	211.474	197.043	205.856	212.884	213.216	217.194	207.523	206.108	211.736	212.024	216.166	209.445	202.221	209.268	211.094	200.274	201.795	207.289	196.887	194.506	192.322	195.657	199.634	201.032	206.107	221.388	212.302	207.566	208.095	206.446	204.781	203.23	208.701	204.551	203.283	203.847	203.389	197.66	203.164	198.612	200.255	202.422	205.15	206.122	204.958	202.908	203.77	211.112	208.748	200.945	190.483	201.631	208.599	207.043	201.539	208.024	212.004	207.805	201.584	200.896	201.154	198.935	204.417	203.246	212.374	201.292	209.88	202.408	201.932	203.481	196.055	202.218	210.913	208.483	211.824	211.597	203.827	203.735	208.754	205.745	200.466	199.202	198.252	217.645	217.946	202.316	202.07	200.888	201.636	200.53	208.408	215.82	217.363	216.934	222.554	225.524	220.794	217.054	225.84	220.797	231.293	231.297	216.366	227.145	243.281	233.414	227.125	244.09	237.159	237.735	235.404	242.793	242.333	235.66	245.006	250.594	260.789	258.918	244.827	241.37	259.724	269.191	254.368	262.704	267.44	276.114	262.276	276.128	292.108	287.064	291.829	278.526	274.808	299.081	298.225	292.676	268.983	287.821	287.422	277.457	325.568	298.529	294.517	300.174	312.736	326.383	304.17	305.618	318.108	309.203	319.182	315.931	320.6	315.238	299.716	313.205	293.451	309.477	293.155	293.787	296.655	307.909	285.677	290.367	277.712	282.197	280.329	267.41	249.42	261.179	262.891	252.566	254.021	243.704	249.255	221.304	235.235	235.453	222.76	225.781	222.267	226.553	215.285	226.334	191.627	223.233	219.176	202.673	200.425	205.546	212.565	210.527	214.957	215.183	219.205	203.437	197.14	192.141	211.179	202.364	205.174	190.149	198.863	202.007	185.975	195.641	198.766	188.2	200.882	194.353	188.824	197.135	183.917	194.826	194.766	192.505	186.211	203.818	192.434	192.963	183.787	190.489	194.615	190.11	182.91	186.734	185.202	180.931	185.405	190.017	193.226	175.008	190.02	188.19	178.955	180.056	185.965	187.623	191.946	181.516	188.483	186.544	185.962	186.042	186.983	174.687	177.728	175.645	179.348	183.219	191.194	197.86	182.605	185.474	190.882	178.587	190.999	182.546	187.408	186.394	186.383	186.371	184.777	185.236	199.745	188.016	187.166	214.891	194.317	196.546	191.211	196.767	190.568	189.297	187.402	187.344	196.328	184.26	186.128	187.865	195.944	190.491	193.21	184.3	181.711	169.763	176.187	183.666
6	86.8101	104.523	104.38	104.116	102.57	109.7	101.751	102.393	122.844	125.761	113.317	121.122	137.157	146.748	157.271	193.814	230.012	223.576	222.288	203.605	193.113	153.716	158.278	146.151	156.658	150.473	152.173	157.361	159.519	160.71	156.969	139.942	146.09	137.786	149.285	135.146	128.468	137.148	144.506	138.984	137.737	145.141	151.249	145.768	151.327	153.146	162.335	167.92	181.648	168.945	167.419	170.333	179.849	176.917	192.8	192.653	193.862	202.179	217.482	230.766	240.294	232.426	266.167	275.948	282.355	299.279	284.151	273.123	290.596	285.5	286.787	272.077	256.413	274.098	250.7	239.427	241.263	228.419	204.183	197.016	211.055	198.269	189.117	180.129	184.443	196.644	186.306	176.232	175.17	173.832	164.558	167.621	169.403	165.585	154.716	167.17	148.808	145.566	146.963	160.41	163.631	154.637	162.547	169.549	172.156	166.501	148.231	175.005	153.277	154.123	164.469	150.43	150.061	161.439	143.567	155.18	159.518	158.384	126.023	150.941	140.332	137.316	145.194	147.071	146.493	144.28	143.807	137.772	145.602	145.872	131.805	138.287	146.327	157.933	151.687	165.507	147.055	178.612	172.691	156.533	170.549	150.712	176.872	156.375	134.176	162.369	140.935	164.342	162.104	158.126	164.378	166.617	170.773	160.088	145.011	151.39	144.568	170.911	160.362	163.202	167.364	181.102	160.378	188.682	181.4	164.158	169.715	172.922	187.1	156.784	170.293	155.949	157.123	159.331	154.407	164.68	159.545	156.949	171.713	172.227	173.012	156.03	163.935	162.485	157.491	166.37	153.973	161.818	157.494	178.74	174.031	178.967	186.003	171.508	177.117	169.502	172.405	163.058	159.439	161.619	166.961	166.911	158.73	144.312	153.251	157.84	153.904	154.457	168.053	171.56	158.714	178.302	182.536	168.345	171.472	176.675	164.492	170.014	162.677	168.678	174.222	177.749	195.536	184.682	205.823	233.124	230.678	259.403	289.368	305.148	384.559	472.48	580.169	728.809	797.442	831.832	723.409	601.759	472.498	391.276	346.66	296.055	258.061	254.103	222.852	218.293	200.787	202.73	197.86	208.201	196.637	204.794	198.99	192.028	197.198	190.97	205.985	223.624	219.31	228.74	263.199	258.951	232.413	210.485	185.275	172.12	186.555	175.4	166.126	155.739	175.005	170.626	163.308	147.089	155.697	160.088	146.117	152.891	166.567	163.412	147.175	155.414	150.356	153.29	143.38	146.909	144.77	153.154	130.833	126.89	145.953	149.453	145.293	128.017	132.39	152.795	162.323	146.387	144.516	148.524	148.62	135.971	144.45	153.445	147.513	136.489	136.119	137.498	137.239	141.11	137.882	146.827	139.74	150.819	142.768	139.593	135.435	139.689	137.774	133.448	138.482	141.581	144.145	145.658	139.781	130.07	133.022	138.433	134.377	139.256	142.287	132.368	135.19	141.054	134.662	144.894	147.635	154.224	143.209	136.875	152.69	163.016	147.576	148.669	153.96	159.618	148.239	154.256	157.675	150.356	145.159	133.38	143.261	144.788	138.52	144.661	132.602	130.615	143.538	142.125	137.698	140.059	130.809	136.641	145.638	143.729	136.864	134.931	120.662	134.207	138.67	143.41	138.43	140.776	134.351	139.512	141.739	135.215	139.755	141.941	141.018	143.859	131.204	130.817	134.497	126.68	132.205	143.677	145.135	144.987	143.85	147.564	135.3	131.649	138.108	130.689	136.894	134.498	127.282	137.459	136.545	133.86	134.036	127.253	136.239	129.529	135.228	131.868	123.101	141.713	126.875	127.357	126.666	130.835	137.204	133.899	122.611	122.803	130.002	116.424	137.294	129.751	127.69	136.488	128.336	129.13	137.13	137.114	128.956	139.972	130.508	141.457	132.51	138.256	144.254	137.307	136.402	138.724	128.28	141.439	132.316	136.327	143.863	152.703	149.557	139.488	145.517	132.797	142.601	132.71	139.148	152.725	152.751	152.956	152.374	157.859	128.795	147.52	141.552	158.866	149.949	154.222	154.608	145.726	148.354	138.449	170.46	148.128	161.261	157.155	144.707	165.294	150.44	143.017	163.421	144.338	157.509	171.295	168.366	140.618	149.986	130.423	164.242	157.347	170.104	139.888	144.546	157.627	164.117	155.173	142.961	143.475	136.918	144.085	148.969	136.143	163.352	146.478	150.146	168.624	156.532	130.271	152.274	155.422	141.41	146.661	157.111	153.797	157.354	152.477	150.786	146.196	144.935	147.544	146.67	149.629	149.716	143.831	154.577	150.945	138.178	147.512	136.888	150.743	152.432	149.959	133.781	134.117	146.323	137.479	132.793	154.328	150.824	155.116	148.574	145.725	144.924	150.374	158.765	143.562	134.099	136.638	141.996	150.019	149.715	149.858	129.881	143.114	141.498	151.303	147.865	142.99	135.996	139.987	140.276	144.747	157.661	140.932	146.711	139.95	152.963	133.003	152.603	149.391	144.621	149.489	143.103	154.51	149.091	136.296	160.757	145.117	149.689	149.456	163.481	154.787	160.933	146.175	157.401	153.594	150.936	152.364	158.505	147.877	150.634	152.712	141.108	149.771	152.107	159.136	165.725	154.599	160.484	149.195	145.91	139.569	150.08	159.695	139.746	162.247	144.105	161.889	148.722	159.425	143.436	139.494	146.123	148.186	141.831	152.892	144.483	155.516	146.584	169.14	144.247	143.935	153.511	155.021	152.652	162.793	152.02	161.081	156.03	155.444	152.205	159.178	159.745	149.609	167.754	142.078	148.505	153.308	162.06	149.337	155.313	161.52	159.069	159.311	163.681	175.84	155.956	165.31	148.56	160.501	166.877	170.917	173.184	168.225	186.932	168.689	179.3	183.601	208.798	178.626	171.325	170.168	179.77	159.231	165.287	159.541	163.628	169.841	147.274	167.265	176.652	167.925	174.671	159.218	178.246	156.879	165.002	170.697	159.989	168.266	165.554	160.671	177.099	173.076	174.842	174.661	165.33	176.646	164.535	157.751	177.979	165.942	173.016	161.859	159.428	173.276	153.545	169.789	184.348	175.719	179.113	184.591	179.101	168.107	172.074	185.172	198.087	205.292	184.184	191.579	204.302	207.241	204.846	184.709	181.275	174.072	181.441	177.353	175.449	177.376	177.972	179.621	166.997	165.017	178.845	176.791	175.018	174.156	182.476	160.812	166.365	179.975	185.402	168.55	188.543	186.739	187.772	176.059	184.623	196.284	170.077	193.025	197.667	185.761	190.231	176.336	185.803	183.73	189.554	183.859	193.072	183.453	177.563	182.719	173.442	197.575	196.855	194.032	185.56	181.446	194.39	184.687	192.136	187.072	186.514	186.661	182.397	191.195	186.015	195.642	193.471	197.655	190.073	196.36	190.551	190.902	195.112	190.719	194.227	202.127	190.001	201.087	204.998	203.053	199.22	200.171	205.518	204.542	199.956	200.74	202.281	206.973	213.684	203.492	207.144	213.109	204.512	199.469	218.456	212.501	226.301	214.726	225.511	225.07	212.112	226.815	224.99	216.743	222.286	215.636	232.756	233.154	233.802	230.6	248.099	232.786	234.865	237.572	240.002	238.01	245.235	243.143	229.93	235.029	235.887	240.77	244.115	228.742	244.082	238.783	246.397	242.129	253.568	260.334	248.016	249.016	259.087	261.433	252.111	247.575	271.366	263.142	258.064	276.956	257.444	264.329	274.38	269.184	264.667	262.128	261.745	270.273	269.698	264.157	270.611	265.718	277.949	280.376	283.675	280.541	261.984	268.945	270.55	275.51	265.093	289.447	277.102	258.966	256.697	256.881	273.816	278.496	278.188	285.679	275.55	266.876	267.292	265.387	269.799	273.531	274.549	279.727	269.018	280.657	281.612	277.19	266.983	266.83	269.484	269.267	261.562	271.185	268.399	268.108	273.77	267.054	273.346	279.619	279.045	277.921	275.213	279.106	277.659	258.353	269.133	280.339	278.184	275.827	266.677	259.609	261.101	266.737	262.462	265.106	271.072	273.63	262.552	270.287	269.975	278.617	268.201	267.907	272.216	274.81	276.833	280.988	273.429	274.499	273.955	262.507	265.394	269.524	269.931	270.373	266.461	266.575	276.216	272.745	257.047	266.761	278.478	272.628	264.718	259.777	264.088	274.127	268.641	279.246	272.68	273.347	266.154	263.519	259.451	273.124	277.514	282.312	259.075	269.45	286.651	284.029	280.522	286.957	272.677	274.161	283.585	285.683	280.082	287.477	285.83	296.993	290.725	295.503	301.053	293.866	296.384	304.363	296.987	306.22	307.157	302.042	306.998	314.8	307.163	323.503	319.941	297.361	324.424	323.922	325.407	311.012	340.491	327.843	326.161	344.906	336.941	337.078	343.136	349.841	353.963	360.847	373.675	380.848	373.629	364.123	365.701	362.448	368.668	354.32	384.209	363.029	386.382	380.875	401.079	382.545	396.5	397.919	397.026	388.394	388.219	416.398	411.954	394.617	408.555	392.323	389.695	385.944	388.283	417.066	400.696	404.139	392.165	393.917	420.422	401.964	386.514	386.06	377.602	369.12	324.053	370.459	362.34	348.626	331.974	351.961	345.082	339.123	350.275	322.407	307.63	313.284	302.825	300.314	313.156	311.59	291.358	311.225	314.718	302.432	305.71	280.666	293.358	277.262	293.592	297.814	286.324	280.433	274.772	275.512	273.127	275.167	283.882	281.175	262.64	267.453	253.269	275.484	268.355	268.917	264.623	269.177	273.261	280.037	265.474	262.64	269.711	258.618	279.728	263.4	262.851	261.347	259.07	272.656	258.692	249.581	264.565	269.91	252.844	275.146	252.153	260.336	261.75	255.039	261.292	261.844	259.034	279.739	260.885	259.738	264.086	241.982	253.712	254.406	262.911	259.587	257.314	252.447	255.04	256.074	256.728	262.883	256.737	244.83	249.086	269.771	269.412	263.115	264.431	266.81	269.821	256.699	274.97	260.157	267.989	254.473	264.57	257.99	268.414	274.589	271.952	275.017	267.51	260.434	274.997	259.186	277.677	251.576	273.32	270.14	272.367	266.712	260.981	268.515	267.525	270.885	271.693	264.572	268.659	268.38	260.321	249.986	258.456
7	119.361	135.717	144.784	155.857	149.799	163.957	154.695	164.891	186.998	193.342	189.173	211.702	234.774	264.971	306.965	359.026	396.765	443.204	442.636	392.087	341.847	307.782	281.223	272.146	272.959	280.273	272.529	287.882	266.804	267.613	258.89	249.013	248.055	241.493	238.991	258.962	242.629	228.551	247.518	242.14	235.497	229.715	259.173	257.927	248.547	257.131	276.226	277.239	274.788	277.306	305.482	314.647	300.453	317.873	348.12	367.384	354.731	377.692	390.055	434.605	441.345	457.439	501.372	525.316	556.427	562.812	543.513	568.881	542.032	562.75	546.476	542.134	525.706	530.579	485.219	455.465	440.984	426.643	433.355	436.139	392.65	376.966	366.007	347.093	334.204	339.911	323.879	324.055	317.976	308.654	301.259	293.041	298.483	270.695	277.195	259.128	263.043	256.266	273.871	278.418	272.069	286.827	307.733	296.912	306.485	299.947	275.672	288.593	274.483	248.37	252.359	271.154	270.931	268.571	275.154	243.327	245.212	232.762	256.684	248.293	241.718	246.55	227.302	260.758	242.165	248.933	247.398	232.805	245.501	241.151	237.532	252.349	251.831	250.574	250.826	243.122	256.388	257.545	249.792	283.066	282.327	244.167	276.352	242.952	259.419	260.077	266.001	255.42	254.647	260.172	259.7	259.869	270.612	253.382	253.276	278.178	282.261	244.493	281.649	271.329	292.417	285.196	332.648	336.9	325.451	299.953	287.926	287.113	280.007	266.653	285.147	294.715	260.453	265.983	260.7	270.942	265.675	260.73	267.558	276.705	280.583	275.437	271.422	285.602	276.453	291.808	278.275	285.853	293.142	314.126	305.4	312.794	328.675	319.977	326.656	313.423	301.636	290.528	281.193	283.432	275.15	279.537	250.154	281.299	262.882	274.54	271.513	263.906	276.289	300.626	282.569	304.341	299.893	304.984	289.746	299.151	297.789	302.744	306.978	319.616	307.471	328.044	365.455	366.204	408.178	428.654	449.146	500.164	560.56	665.823	789.682	985.718	1304.11	1534.55	1720.88	1795.44	1593	1314.26	1028.07	851.347	684.021	608.061	509.773	476.397	461.576	419.207	392.157	376.632	382.759	400.483	385.131	360.524	390.256	383.325	355.32	381.329	382.408	424.53	468.794	492.542	528.197	489.964	452.018	422.041	401.082	358.803	352.481	298.758	299.392	281.672	295.462	299.582	297.528	275.139	284.589	274.256	274.82	272.591	269.444	271.447	264.928	250.357	270.439	273.015	261.616	263.91	265.595	238.954	241.857	257.389	244.727	250.042	247.405	256.071	267.779	252.021	250.089	246.583	246.597	251.398	238.227	246.964	247.013	248.988	250.567	252.425	240.59	227.948	232.06	242.855	249.096	242.696	242.9	269.046	256.531	239.954	240.826	251.48	252.219	250.318	247.237	247.855	243.399	254.756	256.396	263.805	244.511	244.639	250.532	260.747	245.853	248.884	245.183	251.369	245.504	246.028	238.821	248.474	247.097	250.92	239.667	230.887	243.987	252.55	239.077	257.076	262.579	253.429	255.034	248.646	256.247	240.225	255.61	242.237	242.499	242.956	259.986	258.207	246.439	251.608	247.799	239.564	227.427	243.196	247.919	231.606	242.614	246.124	238.31	239.545	229.513	231.586	232.154	218.534	225.818	236.01	247.835	244.634	246.698	239.514	232.887	241.264	237.581	247.57	238.183	242.467	230.488	246.814	241.121	242.527	250.484	229.848	216.099	233.407	232.627	229.571	241.505	233.311	228.444	236.003	240.772	242.705	243.965	234.665	231.234	207.837	213.44	203.71	222.429	225.731	227.172	232.463	244.801	235.561	228.652	217.114	218.327	223.785	216.122	229.465	225.351	220.805	222.018	218.912	218.613	216.599	226.571	225.815	215.791	229.307	232.871	236.782	240.176	215.115	247.063	241.777	234.255	254.803	231.23	225.829	237.172	242.645	238.473	253.407	240.836	249.43	245.15	251.005	241.61	242.674	272.966	231.924	269.699	253.579	261.366	254.928	282.599	274.995	261.248	264.957	255.617	253.764	258.518	261.807	264.297	265.701	248.19	238.257	264.262	262.195	231.035	245.151	247.211	266.809	257.795	265.466	278.712	269.436	260.291	249.937	269.372	269.099	255.005	255.646	260.964	256.324	232.161	246.264	260.269	246.526	254.727	247.602	250.112	259.7	251.156	270.169	278.766	234.619	250.76	252.075	249.315	282.839	250.853	230.523	256.056	260.42	241.54	250.046	233.759	261.323	270.076	247.881	233.024	247.356	252.755	239.535	255.883	247.423	251.107	245.262	242.161	254.196	258.314	248.555	235.16	265.959	240.287	256.603	250.367	247.697	242.74	239.836	253.981	255.682	226.427	243.773	251.57	239.883	239.612	220.501	237.319	243.872	248.453	227.072	252.314	252.406	258.072	263.992	249.813	245.04	244.934	249.104	253.092	244.145	256.771	255.521	241.131	248.422	254.438	248.892	267.454	261.502	251.413	248.374	257.536	255.51	257.816	249.477	253.682	260.752	250.19	271.046	267.811	258.515	258.122	236.502	271.213	282.638	280.633	287.347	260.446	269.103	263.298	247.154	252.449	232.705	255.73	256.541	267.151	243.606	251.421	234.937	254.462	247.876	250.174	253.093	245.252	261.207	269.59	250.695	267.05	268.482	242.168	268.591	268.766	233.39	260.533	262.912	261.003	278.064	255.232	243.511	295.463	252.514	249.005	252.31	260.076	242.706	264.186	286.484	274.967	269.435	274.959	252.65	253.741	267.574	280.346	271.68	255.796	271.059	260.9	270.372	255.143	286.267	269.219	285.659	282.005	282.327	294.631	284.393	283.203	273.039	264.597	278.493	267.357	279.496	285.898	290.243	285.114	296.341	298.171	317.246	317.996	305.541	282.911	298.204	267.896	277.291	283.805	277.602	293.478	276.747	296.626	277.273	274.153	280.28	300.017	301.447	291.332	299.297	310.214	278.773	290.84	300.805	302.829	291.377	283.905	283.053	300.076	312.449	293.076	287.811	298.202	308.279	299.681	292.863	311.987	292.348	304.408	304.454	289.504	297.27	298.033	310.985	285.913	314.486	315.435	322.287	317.685	325.674	349.167	350.781	345.751	351.319	336.719	362.421	337.292	345.507	328.604	314.5	315.053	308.471	317.553	311.503	314.426	320.884	322.202	322.832	316.47	308.95	316.288	322.754	302.139	311.142	311.537	320.646	315.55	321.235	301.648	315.84	329.534	312.905	322.121	323.266	309.17	326.642	335.204	337.944	313.019	311.604	317.309	318.337	326.069	328.527	320.384	326.481	327.036	331.596	334.717	343.896	336.236	330.136	341.64	337.996	348.132	353.808	330.549	333.267	320.544	323.718	329.874	325.946	337.728	339.619	353.658	339.695	340.633	352.728	355.429	345.576	355.484	353.112	346.051	342.919	351.935	346.559	355.747	355.564	354.914	355.539	355.369	355.324	371.774	376.055	362.107	362.607	370.957	378.852	382.096	364.522	385.573	376.79	383.538	381.382	392.452	396.689	388.763	386.503	395.441	412.051	401.081	383.518	407.505	409.028	395.602	411.363	397.008	409.083	431.515	404.348	416.128	425.315	441.465	443.435	440.404	432.538	427.352	434.009	446.66	442.94	458.535	444.935	447.752	458.545	465.719	468.846	450.84	450.311	479.256	470.377	467.487	466.834	473.427	476.511	483.062	495.4	499.773	503.53	495.259	490.227	498.224	486.547	489.449	492.271	509.078	505.233	501.939	514.741	527.185	511.902	489.153	504.531	516.945	505.853	529.88	504.786	508.985	506.39	525.085	506.655	517.809	498.601	503.283	507.222	486.624	497.232	511.344	526.5	510.727	498.176	488.606	505.178	499.424	507.878	517.731	524.274	508.572	499.912	506.381	512.345	503.092	515.164	511.843	495.954	490.702	509.496	504.608	488.5	502.686	488.793	504.419	507.568	503.45	507.869	495.054	492.212	505.849	494.923	496.274	495.414	497.611	498.758	488.583	491.238	498.119	495.056	497.051	497.431	495.355	484.876	481.444	482.469	484.87	487.112	486.42	491.388	491.078	500.615	497.456	497.931	479.073	504.312	511.965	491.066	517.108	498.9	485.989	479.787	476.546	482.953	492.842	499.603	489.468	495.436	488.43	490.37	489.394	484.179	516.455	477.657	486.652	488.33	481.221	473.158	486.289	475.438	480.999	500.524	493.55	500.473	493.963	486.68	497.261	496.201	500.775	483.839	499.337	501.77	496.098	509.075	504.098	524.939	518.38	510.675	532.149	547.058	532.888	528.619	547.516	532.169	536.239	540.587	549.372	555.672	558.936	575.146	571.435	587.283	581.916	570.554	583.525	577.191	577.726	590.24	574.563	591.286	621.465	616.408	630.008	662.846	660.468	678.284	688.868	672.441	644.976	674.469	687.083	718.364	724.388	728.062	756.702	715.643	742.815	713.956	717.523	733.567	744.332	758.003	762.273	771.054	764.109	736.034	754.095	749.165	789.426	783.81	796.441	805.937	798.637	776.636	780.703	778.233	763.608	785.363	760.27	758.065	734.729	749.497	725.242	718.74	725.017	677.168	654.167	664.16	699.561	636.342	636.156	635.905	608.883	595.872	630.387	599.065	546.249	562.966	535.779	541.815	530.88	538.34	541.289	528.818	529.795	514.097	541.717	497.538	476.689	492.21	490.24	498.469	452.518	477.417	489.733	478.502	473.14	463.709	449.78	460.316	443.625	468.024	454.375	429.906	445.295	436.285	433.314	447.964	434.839	440.202	410.038	468.688	455.221	439.598	449.792	435.09	443.217	422.651	441.718	417.238	438.68	411.91	433.727	426.25	452.576	432.185	424.415	413.982	430.835	439.795	414.016	424.318	418.895	439.336	429.42	411.384	421.363	419.69	430.55	422.551	404.12	403.804	416.808	410.405	418.469	417.471	396.267	413.936	403.223	425.398	426.616	416.503	422.751	426.392	422.179	421.742	426.745	417.006	406.044	415.26	413.497	413.216	404.174	410.056	414.067	450.035	431.752	425.855	439.049	431.05	428.534	427.499	418.965	415.84	441.754	409.09	423.697	412.196	428.385	425.477	416.895	415.926	427.699	432.282	417.206	428.782	408.462	420.332	408.859
8	141.069	136.453	162.785	162.132	158.347	158.258	161.325	171.453	170.529	180.614	180.413	181.552	204.928	224.032	235.105	256.96	279.93	298.499	301.295	272.448	255.285	252.941	254.498	240.268	242.952	246.61	261.063	249.358	243.298	227.484	225.85	210.86	232.517	228.764	226.005	223.517	211.159	210.021	227.498	223.549	236.777	247.163	220.557	221.722	240.95	237.385	234.303	245.177	252.543	255.083	217.392	247.902	269.638	255.653	265.987	269.285	258.141	273.117	293.116	309.543	315.296	335.506	322.68	365.568	362.326	375.675	400.273	346.607	381.296	358.653	367.21	360.138	349.915	354.325	323.748	323.259	329.866	320.149	287.515	286.074	278.442	293.114	271.051	250.854	255.829	262.192	247.327	257.578	258.982	252.647	250.27	261.543	236.943	225.928	224.945	238.784	224.884	223.076	226.778	231.261	229.862	229.108	234.757	264.96	259.952	252.356	232.852	236.196	220.825	239.283	233.197	252.116	224.735	245.705	236.582	220.655	234.302	222.401	231.058	235.967	217.843	235.132	223.886	227.895	213.374	235.789	215.749	236.745	208.657	213.498	225.281	225.746	206.968	216.786	233.043	242.268	247.562	248.163	246.863	236.698	240.662	250.706	237.226	252.307	218.884	221.297	250.97	224.361	234.647	230.73	236.982	253.585	264.478	239.565	257.801	258.103	246.844	252.527	242.315	272.882	277.966	292.198	279.521	285.922	268.301	274.158	252.304	259.807	244.046	237.894	232.207	265.492	240.215	249.198	248.836	245.469	218.902	263.04	256.163	259.877	258.256	269.666	254.337	252.139	268.012	242.72	253.959	242.661	244.535	272.419	269.067	267.2	285.887	257.15	289.733	248.045	249.075	236.065	229.411	253.487	266.342	250.959	249.209	242.683	233.051	243.046	238.109	259.419	245.145	259.939	247.821	268.04	278.835	274.594	266.704	269.37	277.784	267.563	272.551	271.112	291.292	278.391	284.359	326.602	321.505	338.777	328.51	358.53	391.43	448.619	537.28	645.095	785.855	910.641	988.627	982.509	893.783	726.071	639.961	533.011	470.541	422.649	372.309	356.547	324.713	307.305	300.063	307.537	313.805	294.868	325.8	317.51	276.594	298.933	319.213	289.071	319.622	331.696	337.331	346.723	355.25	368.842	345.802	304.5	307.175	288.567	284.54	270.208	240.025	258.459	266.664	264.526	260.331	265.028	261.479	263.793	249.326	240.784	238.757	250.147	240.738	230.282	243.614	244.172	241.944	235.336	242.311	246.552	233.588	228.641	239.097	234.765	240.699	245.624	245.671	241.7	246.113	237.025	233.97	234.44	227.587	232.611	235.214	225.221	240.762	221.224	216.656	219.994	231.283	239.929	233.37	233.114	239.544	248.422	232.317	231.836	223.038	218.851	228.704	232.174	235.971	225.67	238.969	238.296	234.858	232.17	223.615	217.967	228.589	239.292	233.938	236.478	231.27	230.552	233.472	244.285	250.37	237.334	218.04	224.033	229.135	218.283	207.963	231.936	234.083	236.589	255.708	254.821	241.509	246.797	233.8	246.102	235.806	227.089	228.191	222.97	229.279	225.486	236.744	232.842	242.31	249.27	236.206	239.859	234.111	226.939	213.139	216.992	213.463	221.301	210.899	205.9	237.318	224.815	225.735	227.848	237.859	225.242	216.83	212.528	221.53	225.594	217.111	224.901	213.289	214.512	221.413	235.987	209.321	211.748	219.059	218.397	228.598	218.162	201.812	214.211	202.484	220.57	224.937	221.488	209.324	209.299	209.455	222.093	194.955	209.321	198.642	205.422	201.596	206.886	217.971	212.023	214.862	204.272	201.38	203.786	201.135	204.483	203.018	205.99	201.719	206.814	213.352	216.449	210.111	215.231	204.272	219.649	210.656	213.587	210.627	228.673	215.65	232.274	242.666	231.488	215.297	231.21	220.098	209.472	218.15	214.626	230.734	225.387	210.186	233.085	213.235	222.338	235.771	228.429	230.846	228.557	226.552	231.964	212.374	241.9	248.307	226.921	249.449	261.685	223.049	254.271	236.383	222.292	232.151	226.3	230.085	228.061	242.626	244.236	238.014	231.295	275.143	230.027	240.443	240.327	247.794	235.815	245.687	237.521	232.604	232.011	218.974	243.278	233.756	219.063	226.691	258.181	236.552	230.491	223.149	243.1	238.319	234.187	222.984	233.88	231.823	231.14	248.833	239.951	221.268	222.2	238.793	247.37	224.246	254.5	239.272	235.706	240.872	219.633	213.507	231.556	249.327	228.258	236.729	236.417	239.915	237.331	234.836	238.69	222.369	250.623	213.53	243.165	225.579	224.471	217.8	230.854	225.513	227.37	238.475	260.542	233.634	244.273	251.615	247.103	240.68	225.236	228.988	228.524	234.118	237.839	226.556	232.37	221.073	223.789	226.066	234.458	233.325	219.492	246.421	248.202	246.053	237.944	247.891	227.439	236.08	240.318	228.935	230.412	251.811	249.044	228.738	253.016	234.352	259.726	240.215	234.038	245.324	259.708	254.605	243.141	237.79	223.182	234.844	235.897	251.682	248.599	243.489	246.743	236.684	247.685	257.087	234.694	246.98	253.79	256.74	248.041	242.616	240.282	241.224	241.325	239.055	250.833	252.232	235.757	234.133	254.65	257.736	250.259	245.762	243.813	245.307	248.799	236.884	238.774	218.764	244.045	248.861	237.458	255.444	237.629	252.201	240.627	245.944	252.827	243.836	250.02	247.094	244.753	235.053	257.406	260.725	235.737	245.731	253.368	246.683	258.254	253.132	263.41	251.648	256.046	250.438	270.421	260.371	248.423	271.677	259.677	265.322	241.468	260.598	247.005	250.865	254.622	265.858	267.127	257.568	259.673	272.763	274.805	275.023	272.091	277.299	272.866	256.57	260.29	263.876	262.593	278.415	269.79	270.889	279.982	264.733	253.786	261.406	278.008	279.827	278.635	290.248	262.286	286.509	282.719	259.404	276.32	258.688	284.492	287.743	272.945	287.249	285.011	281.548	278.618	275.829	293.674	272.738	279.137	284.115	281.353	296.506	295.181	288.528	295.663	283.323	288.281	271.503	285.787	300.919	288.622	290.786	309.887	305.528	312.565	326.632	319.629	317.809	320.405	318.937	315.84	303.139	306.479	299.757	291.45	299.727	291.154	296.164	296.674	299.096	291.203	287.484	286.775	296.842	290.756	303.194	298.369	308.569	312.111	302.007	294.444	300.839	309.976	308.245	307.594	306.828	318.972	304.548	315.965	311.778	329.416	309.26	305.206	320.159	316.765	304.799	316.984	320.574	312.704	315.889	316.804	321.568	322.814	318.186	320.783	336.483	335.141	341.368	314.038	320.988	309.151	310.048	312.008	303.644	319.395	335.313	321.503	330.993	321.725	325.314	342.919	343.496	346.004	326.857	337.843	327.446	340.566	345.963	324.496	359.895	327.074	346.631	365.689	345.769	361.918	334.641	350.358	363.638	359.164	354.204	368.121	366.993	369.73	356.464	359.111	366.014	370.205	384.789	370.9	389.324	386.171	394.514	392.66	382.068	395.888	389.092	397.203	393.909	374.059	403.23	401.036	386.652	406.287	412.436	417.891	411.962	405.322	436.345	410.682	426.55	422.352	426.008	422.261	427.663	445.065	447.364	433.512	420.93	451.144	452.343	452.305	432.628	430.528	420.577	458.17	455.866	453.723	469.163	483.296	492.242	480.455	489.871	474.422	465.272	480.601	486.221	480.752	475.243	497.759	492.175	496.797	483.092	492.873	488.446	482.192	488.037	497.84	499.4	488.362	503.005	483.786	500.166	500.551	481.661	477.862	484.285	487.163	493.187	460.156	477.194	492.755	486.292	488.58	480.606	493.947	495.709	498.307	491.86	485.563	480.61	489.024	490.042	503.354	487.668	461.783	465.187	455.458	467.122	463.178	470.837	460.402	462.602	472.057	485.442	496.947	484.993	500.425	486.423	489.674	482.273	478.171	474.777	477.623	479.656	473.273	467.95	465.024	470.707	464.433	469.52	475.561	471.502	481.445	472.858	470.367	472.276	457.767	471.783	487.245	485.232	481.004	464.267	472.263	464.639	472.848	465.603	481.39	481.519	469.451	479.105	475.115	473.081	459.77	464.777	465.956	472.04	467.632	468.918	476.747	477.317	455.68	459.974	468.743	463.884	485.262	483.446	472.589	479.688	476.472	464.379	485.394	471.9	480.961	494.431	493.216	486.897	473.502	480.061	471.827	476.897	490.324	503.344	492.493	507.616	511.505	503.509	510.307	514.597	513.125	515.577	532.23	530.337	528.289	527.473	507.593	515.041	519.624	548.168	562.613	576.352	579.782	562.51	556.519	563.771	567.893	571.432	578.862	585.26	587.054	593.505	600.284	598.694	617.042	623.056	634.687	647.34	640.021	651.567	667.705	681.802	693.129	667.291	723.857	745.231	689.072	722.635	708.137	710.966	728.78	765.535	736.92	742.741	742.193	737.404	711.824	763.99	732.483	719.129	759.201	750.666	740.309	769.985	763.156	763.333	751.202	769.719	734.352	758.196	758.931	730.108	719.928	735.072	712.439	712.505	682.295	676.976	662.301	640.844	640.181	589.671	563.273	591.513	581.432	596.005	576.37	550.271	543.123	535.597	534.54	507.82	486.246	481.14	517.758	503.455	513.209	488.202	488.486	491.798	462.75	467.8	457.178	453.855	456.94	451.033	438.149	456.501	457.101	429.595	432.266	422.562	408.081	439.984	426.912	419.461	411.433	411.349	423.249	434.982	427.405	411.472	418.532	424.03	429.985	409.926	416.451	415.259	423.11	405.068	406.636	408.786	422.605	402.077	410.292	401.273	423.155	412.492	410.446	399.039	395.208	397.329	409.321	403.774	404.379	391.692	377.738	403.351	366.89	381.337	408.213	393.938	395.256	396.237	381.665	378.473	388.886	387.551	385.458	384.179	404.398	421.705	400.124	403.221	395.079	419.492	397.815	381.501	401.863	406.304	404.088	371.962	402.963	390.293	397.073	391.313	384.175	400.102	403.115	410.952	412.334	409.632	402.745	388.803	405.362	383.906	394.303	386.411	377.288	389.354	379.629	401.151	398.123	399.493	395.774	399.718	390.381	370.23	373.612	376.8
9	97.6644	104.891	87.1581	100.564	108.459	101.627	99.5126	99.655	100.901	118.052	111.081	113.362	136.016	130.878	133.11	137.956	163.539	180.37	167.188	162.943	143.846	141.354	132.232	138.315	137.514	135.928	132.278	146.324	135.468	133.452	120.371	123.227	138.943	114.966	129.525	132.298	127.02	109.99	123.045	127.529	123.386	139.442	133.833	134.235	138.387	137.303	131.852	143.5	142.523	145.041	144.553	126.807	133.358	141.237	150.77	144.083	144.543	155.292	153.463	152.39	157.622	180.133	190.984	188.814	187.112	185.5	194.39	194.522	180.301	167.849	180.957	173.837	180.151	178.754	173.108	166.538	161.182	143.922	156.725	152.877	161.027	141.342	151.998	152.694	138.667	138.567	129.325	142.075	138.039	139.593	141.281	134.904	129.73	129.19	121.034	133.836	128.983	126.108	131.805	120.176	116.717	132.991	145.57	147.065	130.363	142.475	133.934	126.111	123.976	126.51	131.713	128.565	134.373	129.268	130.824	124.462	129.931	133.021	119.369	113.935	119.481	128.369	138.695	119.703	130.497	135.166	127.402	120.902	116.024	129.239	137.338	126.765	128.783	138.581	124.511	120.449	122.096	140.098	128.616	137.323	137.199	133.194	143.085	125.764	139.843	141.346	119.196	120.982	128.193	125.445	143.436	136.594	148.241	144.031	135.747	124.975	130.283	154.636	138.442	127.18	156.064	149.633	166.965	130.78	148.013	149.037	149.826	138.722	120.452	134.409	137.208	138.767	123.7	142.664	148.026	131.43	131.744	134.281	138.106	146.673	130.624	147.653	146.819	126.1	138.159	122.716	129.696	121.353	138.412	129.483	120.433	144.97	157.251	143.058	151.739	131.014	150.178	133.005	143	129.641	126.784	121.441	139.186	135.989	145.481	160.112	132.95	130.32	136.268	131.325	144.794	131.784	142.037	151.12	143.79	147.181	150.956	134.531	134.67	147.913	148.533	148.338	145.319	152.471	164.274	175.964	180.694	195.779	203.734	215.517	235.267	278.683	346.07	386.556	413.832	427.761	381.096	335.328	292.872	238.991	231.071	197.366	183.485	163.827	153.934	158.093	149.258	160.164	157.2	171.701	167.553	162.355	145.348	146.14	150.999	141.35	144.468	143.994	169.44	189.176	161.678	172.136	175.867	149.121	159.07	144.147	150.889	138.11	135.032	128.46	145.196	142.94	142.656	120.521	131.243	138.456	133.506	133.672	121.771	129.682	116.19	124.948	135.015	124.826	117.915	121.733	123.411	118.279	122.72	127.511	128.279	117.525	132.963	127.136	114.378	125.778	123.405	117.717	108.796	112.164	114.961	118.368	126.621	118.189	117.316	115.869	116.959	118.958	107.24	115.838	114.083	121.244	122.68	126.584	119.949	118.412	124.222	120.368	115.946	119.073	120.002	124.848	111.678	125.852	119.173	118.851	113.964	102.017	114.816	117.407	115.545	117.896	118.613	118.605	115.463	115.081	119.875	118.47	118.424	115.447	108.073	105.368	111.148	128.954	128.393	127.279	126.784	123.025	120.167	126.125	119.176	117.505	120.916	110.059	112.96	116.208	109.593	110.022	120.042	120.471	120.229	114.082	120.88	118.326	120.268	112.276	123.929	116.367	115.393	118.172	114.599	112.455	111.43	114.434	112.152	109.719	119.378	118.18	101.695	107.264	106.913	108.983	106.303	102.493	105.578	110.174	108.485	106.864	105.945	108.563	113.261	105.786	106.231	112.605	115.118	112.038	117.476	108.687	101.793	107.147	111.227	103.165	108.002	102.86	105.746	103.917	100.616	108.778	104.276	97.0657	97.7933	102.857	112.618	103.359	106.301	112.159	99.9696	107.863	101.609	102.2	98.3115	104.08	101.249	106.736	107.647	119.44	103.786	100.327	97.9691	109.369	122.509	98.8762	113.178	115.591	102.819	107.911	106.514	112.151	126.557	119.165	117.47	112.614	101.233	112.852	125.774	114.116	118.938	124.115	122.138	115.066	115.067	103.398	113.279	131.654	115.966	132.599	126.996	121.793	121.338	120.547	116.442	108.603	124.581	122.278	113.335	126.606	114.303	123.1	121.383	124.209	126.342	123.062	122.583	116.132	112.358	116.328	121.96	121.812	132.503	136.331	111.54	126.728	126.671	108.185	127.457	105.269	122.927	116.434	121.174	120.717	127.912	116.931	117.04	125.696	116.601	114.673	121.403	111.401	117.564	121.741	118.703	119.578	111.699	115.233	113.795	126.945	119.771	122.415	120.561	121.875	122.451	124.457	113.623	122.69	116.244	119.052	103.095	116.513	106.805	117.202	122.877	119.949	121.823	118.034	117.015	97.6786	106.628	116.455	116.927	132.642	127.091	108.361	120.557	122.876	112.665	110.256	103.648	118.439	110.808	110.188	115.643	109.981	106.498	121.653	115.942	112.578	108.809	112.605	107.076	116.88	113.844	116.605	118.499	126.989	113.467	95.4272	108.844	106.894	115.364	129.36	125.382	105.661	122.607	118.725	120.055	126.985	114.718	127.097	114.099	129.217	123.222	132.066	111.65	130.57	131.879	124.868	116.484	126.038	124.202	134.116	126.376	125.142	120.786	126.82	127.145	124.882	102.965	117.207	110.377	126.825	114.029	123.583	119.655	111.605	113.435	111.9	109.764	124.652	126.627	114.463	115.213	124.378	107.265	120.597	120.889	111.918	120.173	117.134	129.382	120.141	122.501	121.824	126.095	121.23	115.649	127.997	116.508	115.585	124.681	130.832	121.851	121.645	136.436	128.314	114.796	118.713	124.657	120.343	116.792	118.378	126.634	114.904	134.039	130.852	122.574	127.27	125.087	136.296	129.224	112.237	124.562	118.471	134.641	119.519	120.837	123.618	124.794	125.948	141.44	127.528	144.862	142.096	146.644	136.206	122.28	130.508	128.876	136.874	138.21	115.815	118.425	135.885	128.853	120.413	128.826	121.176	127.042	141.642	132.403	127.227	128.706	129.161	134.632	127.802	139.881	129.34	125.62	128.392	129.542	125.966	130.926	131.914	135.905	136.634	142.841	133.872	143.1	125.703	124.842	129.997	133.228	129.72	135.08	133.829	133.423	131.782	127.129	137.187	136.448	143.961	139.262	145.766	149.749	136.728	137.774	133.372	138.258	144.029	134.087	145.685	124.354	136.379	126.844	125.823	137.835	135.541	134.64	137.519	152.484	142.109	142.449	144.069	138.08	134.479	123.219	138.261	129.447	142.092	140.243	145.922	140.462	146.633	137.973	143.225	145.25	133.378	144.503	149.022	156.009	142.726	137.09	137.738	137.521	141.127	143.622	142.888	147.155	144.812	134.745	150.379	150.712	138.439	141.328	139.736	152.917	140.56	148.701	141.382	133.303	145.72	145.537	143.407	133.824	144.527	140.619	145.489	150.031	144.773	152.351	148.701	151.649	143.256	152.486	156.706	149.192	151.439	145.479	154.734	147.85	152.764	142.455	150.497	156.541	161.784	158.23	157.549	155.983	151.96	151.567	160.783	163.783	173.859	169.724	157.732	167.194	168.855	176.968	167.67	169.756	170.559	173.842	178.455	170.359	166.204	155.299	165.561	171.819	178.665	171.118	170.558	173.003	168.48	172.762	172.483	166.613	177.917	190.347	185.56	183.747	176.388	182.535	190.722	193.438	178.848	192.316	196.432	184.541	191.539	192.349	181.29	187.664	194.366	191.367	189.208	187.713	194.072	199.349	200.931	205.282	214.15	212.839	203.157	209.363	209.073	199.041	204.194	205.188	209.554	213.72	202.384	206.293	200.712	202.322	195.998	206.943	202.864	197.996	211.383	205.924	209.59	206.331	201.622	207.603	208.429	204.535	200.395	197.226	201.135	202.977	195.763	197.707	205.994	198.461	198.002	188.017	192.651	196.59	200.097	189.448	199.209	194.914	209.595	197.524	191.274	208.099	200.133	199.685	201.625	205.969	212.745	203.358	195.37	205.666	208.554	200.782	200.078	203.74	208.18	209.948	206.858	201.6	205.197	204.507	199.255	199.63	210.127	203.966	199.578	188.052	197.435	197.776	202.09	201.242	203.39	199	195.052	205.291	205.614	206.477	206.233	205.464	209.033	204.611	202.629	205.889	190.621	205.364	203.229	205.271	201.661	213.366	200.021	204.822	206.51	208.421	201.632	194.138	200.836	197.7	202.601	209.791	201.811	184.271	207.739	220.895	207.284	201.911	203.776	205.608	204.809	226.701	213.979	222.487	208.011	200.784	202.564	203.462	207.34	222.012	223.42	212.319	215.549	220.494	197.819	204.104	221.276	224.619	233.418	227.04	220.454	230.613	218.52	214.919	212.047	222.601	238.689	250.619	234.829	242.805	242.518	240.009	232.924	238.363	243.579	242.634	237.369	230.395	233.483	242.832	250.806	248.629	251.34	248.741	258.635	263.569	269.114	265.772	283.666	292.495	254.974	290.102	266.606	267.888	284.615	266.922	260.065	285.848	297.611	293.017	281.16	301.077	278.368	290.014	302.83	276.224	275.822	291.141	288.992	277.662	279.58	289.63	275.001	265.147	295.312	277.988	294.13	271.477	291.377	276.24	288.6	270.192	259.575	258.37	261.953	256.184	261.293	246.594	255.233	252.467	251.458	233.548	227.011	243.513	221.74	218.508	223.85	220.13	222.939	208.082	208.605	216.988	210.665	217.911	209.655	210.749	206.564	209.768	210.084	212.678	211.486	214.437	200.251	219.373	192.645	208.716	193.732	197.791	182.979	193.377	194.12	201.34	201.638	196.201	192.337	193.866	195.633	208.038	198.787	198.425	196.119	196.138	206.64	190.899	185.831	200.32	187.574	196.86	190.201	194.254	181.354	196.915	200.537	186.289	178.992	188.828	190.465	183.805	195.515	179.952	189.566	181.95	186.493	187.554	185.453	184.276	189.997	194.625	195.706	184.673	169.337	172.876	190.024	186.763	183.862	185.35	188.831	197.194	188.08	195.091	187.15	201.77	196.195	197.09	185.821	202.388	190.791	193.757	175.861	179.993	197.708	182.984	191.489	194.007	200.003	200.489	193.2	196.016	197.175	199.122	201.381	197.695	192.737	183.593	188.345	197.976	194.402	193.882	198.754	190.74	193.62	187.193	186.706	188.876	184.237	180.436
10	149.204	147.977	152.296	160.04	172.417	167.044	162.983	171.974	205.647	195.561	189.083	210.837	200.081	222.422	239.473	258.221	315.956	323.082	301.872	290.43	298.639	278.048	269.408	247.122	243.683	248.391	255.672	254.333	259.663	242.565	245.941	237.552	241.256	250.113	255.757	235.04	235.387	235.652	257.546	252.208	256.869	248.676	233.12	245.034	255.496	251.596	269.204	279.983	269.973	277.936	285.529	299.815	283.985	280.669	298.609	313.294	317.912	326.975	347.929	370.094	364.197	383.963	396.433	413.227	435.757	447.712	450.392	469.9	458.587	430.048	443.434	431.579	421.743	393.598	393.033	367.542	377.611	394.699	353.211	349.373	347.84	332.198	318.608	290.962	323.377	313.166	318.26	286.13	313.222	307.744	297.518	296.94	283.554	275.571	271.426	269.551	291.089	272.369	280.731	278.713	280.023	270.973	291.549	277.165	297.439	278.676	282.425	269.52	268.954	267.847	288.649	264.141	279.434	275.715	260.055	272.576	264.027	265.212	276.309	248.928	252.266	272.465	237.833	266.165	281.038	288.436	264.392	253.048	269.473	275.646	254.134	252.878	258.288	278.443	264.69	292.473	293.534	259.033	296.835	300.379	302.313	294.069	268.991	274.808	272.796	270.591	257.021	262.981	250.671	273.528	277.847	280.022	274.845	285.865	301.026	278.784	291.121	277.042	293.902	299.525	305.828	303.119	336.515	356.578	335.836	346.995	333.557	287.651	292.071	301.748	296.768	292.611	280.292	301.877	305.455	315.582	313.146	283.563	320.059	294.28	328.904	303.637	291.18	285.703	295.65	294.545	297.168	320.836	301.583	316.603	310.958	326.836	317.702	344.913	321.724	308.456	293.207	308.742	302.676	302.053	301.839	294.181	307.532	291.453	285.491	302.297	291.946	309.952	303.99	332.722	322.899	312.049	330.16	311.86	325.015	325.676	302.795	317.345	323.664	321.781	329.604	332.955	340.176	377.654	382.015	402.337	431.567	443.657	473.709	535.365	600.668	745.248	930.475	1055.06	1201.86	1242.43	1151.91	931.504	789.768	672.903	603.38	534.294	450.919	454.477	406.964	398.697	387.014	375.246	380.583	381.796	370.779	379.681	370.273	363.55	355.908	361.487	377.145	411.647	413.328	454.647	478.391	453.471	410.294	396.768	384.739	363.778	329.89	336.078	330.737	322.702	295.614	324.377	315.229	310.087	298.309	326.286	298.429	298.12	304.308	278.639	295.035	283.495	286.055	300.881	311.756	307.331	289.059	294.319	293.733	277.625	264.951	307.519	295.43	301.947	303.288	302.79	281.599	281.67	275.426	281.521	276.349	274.549	286.304	289.649	277.45	288.363	285.443	261.245	263.744	270.528	285.13	284.319	278.272	286.026	299.379	301.127	282.231	288.436	281.861	283.61	294.747	298.98	300.021	281.697	271.162	283.525	263.197	268.356	275.416	283.221	293.838	285.152	286.739	297.916	287.297	283.242	292.745	295.667	287.874	276.008	287.166	291.789	289.143	282.228	288.146	291.864	323.097	311.607	295.135	297	283.36	300.567	291.938	292.156	291.597	275.664	282.424	289.303	289.983	297.749	277.946	285.298	279.024	300.404	284.754	273.411	286.205	274.108	266.437	277.329	276.359	269.408	275.066	278.161	285.206	286.603	279.8	282.126	282.825	296.793	280.093	274.931	270.555	270.61	274.728	276.617	272.635	273.084	301.054	283.117	280.853	285.27	283.083	282.33	283.949	277.49	272.078	267.412	270.176	272.018	275.211	277.546	267.099	275.519	283.69	265.183	256.362	264.187	253.627	253.456	266.932	257.078	262.471	272.497	273.23	283.422	257	253.506	273.326	254.47	249.855	263.618	271.973	273.782	277.604	273.869	261.065	260.935	274.814	284.5	294.62	281.866	298.145	279.975	285.495	301.723	284.211	284.24	280.21	279.23	301.047	286.492	273.529	271.545	302.585	306.366	295.537	289.736	286.999	286.715	295.288	313.432	312.245	325.441	295.323	295.644	331.504	309.384	306.694	337.318	312.085	300.829	338.867	289.487	305.364	285.717	317.184	295.989	309.544	301.288	317.488	303.303	290.464	318.5	338.931	336.657	324.445	298.539	318.781	342.408	308.019	304.078	344.806	318.959	323.97	303.07	315.46	312.555	303.583	305.634	303.394	280.13	314.701	297.444	309.451	319.492	311.3	326.856	327.187	305.79	313.302	291.663	303.974	297.146	319.404	309.992	292.897	294.876	295.248	335.005	345.66	313.649	310.433	311.93	319.753	310.769	304.119	301.711	273.736	301.093	319.374	285.834	317.925	285.354	304.923	272.23	299.98	325.219	323.292	307.702	307.9	320.19	309.836	322.165	298.402	294.265	284.394	304.057	303.779	295.702	309.635	314.946	305.346	282.952	294.998	314.95	308.288	305.121	308.568	302.678	305.242	309.594	298.707	324.503	312.494	308.03	311.344	303.05	298.705	316.382	323.049	334.424	339.525	326.707	317.515	324.006	302.345	308.32	290.713	327.02	314.809	316.91	319.94	321.086	333.105	343.275	326.239	340.324	300.254	336.856	322.691	313.508	336.686	301.804	306.99	319.76	324.146	322.056	289.247	323.958	303.523	312.365	315.137	327.748	327.874	323.858	332.384	310.338	334.339	325.833	338.605	329.527	334.409	337.277	327.935	339.94	320.2	309.763	325.875	341.603	333.825	335.151	321.126	333.176	317.915	336.436	316.943	335.51	326.948	328.999	330.296	330.615	356.409	330.448	339.695	316.131	354.915	349.813	346.934	334.591	322.623	336.675	340.917	328.023	359.793	354.319	334.101	367.929	349.845	343.198	338.181	354.205	345.356	343.424	365.745	357.932	334.176	371.76	368.309	368.4	372.56	388.008	369.119	360.351	369.555	346.985	353.011	361.677	371.256	372.351	366.638	351.845	351.766	353.713	357.945	355.137	368.023	386.241	369.774	387.82	369.324	366.465	376.481	357.489	364.829	371.348	370.907	357.643	389.469	375.612	394.278	383.698	388.28	378.805	374.849	376.42	378.459	381.988	386.881	373.98	376.706	366.031	382.276	374.746	371.938	365.074	379.041	371.499	401.474	404.853	419.555	413.472	396.846	411.291	427.374	433.246	427.959	416.308	399.402	385.897	397.01	401.823	396.39	393.53	397.675	399.717	381.798	398.464	410.972	389.554	398.073	385.781	376.792	404.51	423.045	403.162	418.71	418.899	413.753	403.044	408.222	407.184	414.837	431.607	403.063	416.986	439.898	419.75	421.864	416.258	416.686	413.331	427.166	410.303	412.38	415.946	417.96	408.905	410.747	428.438	442.675	429.738	418.6	436.769	421.912	415.086	416.466	436.759	406.979	432.129	409.007	418.696	420.376	440.575	435.269	435.313	440.863	448.665	462.15	444.638	432.705	435.567	445.49	450.407	456.881	446.978	457.36	466.674	447.698	479.943	471.552	462.867	472.803	460.09	491.94	497.239	471.844	485.382	480.376	497.417	496.145	512.397	495.455	508.198	501.288	510.698	508.255	494.51	500.077	532.032	531.162	521.274	520.636	526.211	509.93	527.268	540.419	551.971	525.405	538.867	542.086	559.628	552.763	555.461	557.726	564.916	564.168	568.91	569.16	600.705	580.04	573.647	591.592	585.156	600.651	597.237	596.665	609.751	597.714	602.41	620.175	599.721	607.219	631.829	640.979	634.562	647.104	658.766	646.591	636.354	653.006	647.948	639.756	656.599	654.619	653.833	664.107	649.3	669.764	664.715	655.777	660.197	641.393	667.814	666.773	673.616	680.935	684.111	666.701	656.958	654.065	667.135	628.389	648.32	653.134	657.154	643.637	648.886	652.75	644.523	673.813	678.244	658.988	648.365	668.425	652.568	658.247	659.758	652.043	652.784	660.026	631.159	642.38	648.005	638.353	644.369	633.909	630.731	642.302	644.372	658.228	652.008	644.043	667.262	666.558	653.219	648.746	641.994	656.334	644.073	632.952	668.956	652.785	644.621	635.913	619.891	636.836	644.688	631.471	647.207	663.028	656.826	662.941	659.415	636.472	642.408	656.931	666.406	669.327	661.418	665.069	654.194	643.403	638.11	642.685	618.78	644.273	652.876	626.903	603.996	635.229	646.729	643.362	645.519	645.132	646.339	637.416	649.531	652.506	656.106	645.675	643.915	643.395	633.235	664.595	638.344	639.166	634.007	643.133	658.313	674.488	664.87	635.121	649.104	651.251	665.34	650.927	672.398	672.174	684.303	709.946	701.145	697.241	700.788	703.605	712.204	721.475	722.434	738.076	739.455	733.059	722.074	744.483	767.574	759.544	756.554	760.062	783.767	775.254	781.166	793.077	796.767	771.176	760.808	844.755	779.796	832.981	850.711	839.385	849.938	852.709	861.175	913.083	877.874	895.738	899.233	951.646	919.752	958.307	946.517	982.238	989.011	991.809	971.786	953.878	1003.71	962.297	1028.52	1028.89	1001.04	1046.3	1005.05	1009.63	1024.57	1031.5	1006.79	975.854	1025.11	1027.88	995.177	1019.67	1023.22	1024.11	1023.8	1018.25	994.343	1013.64	988.851	1012.1	971.128	932.254	948.66	895.292	865.617	849.776	853.652	813.404	809.802	814.412	796.734	808.382	790.445	753.303	731.67	724.477	696.633	714.926	721.662	717.732	715.631	721.641	681.093	680.175	686.16	649.684	664.413	636.444	631.685	637.631	640.706	640.314	650.945	624.908	638.09	618.834	628.91	625.264	630.03	608.225	605.11	587.259	596.63	621.677	607.971	584.959	597.568	575.206	600.397	588.838	569.841	601.489	600.748	605.064	616.98	586.727	588.099	583.261	583.986	579.933	559.813	563.519	591.11	592.678	580.71	593.271	584.073	593.714	577.871	582.221	579.629	584.581	572.804	558.107	577.103	585.534	569.952	590.831	578.178	590.044	569.561	576.388	555.901	539.526	546.861	550.763	570.176	568.823	574.918	588.812	573.715	589.923	595.374	589.324	576.199	576.345	596.922	570.9	557.632	578.695	586.483	593.141	574.517	594.326	612.74	578.367	594.164	579.573	580.935	586.75	597.166	584.815	586.321	563.782	587.773	589.525	574.117	589.644	591.014	594.164	581.229	575.811	585.278	563.726	569.157	568.817
